RÖNTEC GmbH Berlin, Germany
Quantax 1.2

Date: 26/11/2018 3:08:32 PM
Real time: 1004036
Life time: 1000000
Pulse density: 1371


Detector type: XFLASH
Window type: 
Detector thickness: 0.45
Si dead layer:0

Calibration, lin.: 5.004
Calibration, abs.: -484.3
Mn FWHM: 135.26
Fano factor: 0.11
Channels: 4096

Energy Counts
-0.4843      0
-0.4793      0
-0.4743      0
-0.4693      0
-0.4643      0
-0.4593      0
-0.4543      0
-0.4493      0
-0.4443      0
-0.4393      0
-0.4343      0
-0.4293      0
-0.4243      0
-0.4192      0
-0.4142      0
-0.4092      0
-0.4042      0
-0.3992      0
-0.3942      0
-0.3892      0
-0.3842      0
-0.3792      0
-0.3742      0
-0.3692      0
-0.3642      0
-0.3592      0
-0.3542      0
-0.3492      0
-0.3442      0
-0.3392      0
-0.3342      0
-0.3292      0
-0.3242      0
-0.3192      0
-0.3142      0
-0.3092      0
-0.3042      0
-0.2992      0
-0.2941      0
-0.2891      0
-0.2841      0
-0.2791      0
-0.2741      0
-0.2691      0
-0.2641      0
-0.2591      0
-0.2541      0
-0.2491      0
-0.2441      0
-0.2391      0
-0.2341      0
-0.2291      0
-0.2241      0
-0.2191      0
-0.2141      0
-0.2091      0
-0.2041      0
-0.1991      0
-0.1941      0
-0.1891      0
-0.1841      0
-0.1791      0
-0.1741      0
 -0.169      0
 -0.164      0
 -0.159      0
 -0.154      0
 -0.149      1
 -0.144      2
 -0.139      2
 -0.134     17
 -0.129     30
 -0.124     47
 -0.119     96
 -0.114    253
 -0.109    440
 -0.104    824
 -0.099   1650
 -0.094   3060
 -0.089   5361
 -0.084   9318
 -0.079  15636
 -0.074  25367
 -0.069  39586
 -0.064  59941
 -0.059  88484
 -0.054 126201
 -0.049 173200
-0.0439 232466
-0.0389 298963
-0.0339 373504
-0.0289 451491
-0.0239 528466
-0.0189 597339
-0.0139 656723
-0.0089 695747
-0.0039 715970
 0.0011 713067
 0.0061 686544
 0.0111 640413
 0.0161 579049
 0.0211 505137
 0.0261 429162
 0.0311 351662
 0.0361 279428
 0.0411 213688
 0.0461 160214
 0.0511 115419
 0.0561  80621
 0.0611  54091
 0.0661  35672
 0.0711  22651
 0.0761  14076
 0.0812   8326
 0.0862   4807
 0.0912   2657
 0.0962   1498
 0.1012    811
 0.1062    395
 0.1112    195
 0.1162     92
 0.1212     53
 0.1262     29
 0.1312     11
 0.1362      8
 0.1412      3
 0.1462      1
 0.1512      1
 0.1562      2
 0.1612      4
 0.1662      1
 0.1712      4
 0.1762      1
 0.1812      2
 0.1862      1
 0.1912      2
 0.1962      3
 0.2012      2
 0.2063      2
 0.2113      1
 0.2163      1
 0.2213      2
 0.2263      0
 0.2313      1
 0.2363      3
 0.2413      0
 0.2463      0
 0.2513      0
 0.2563      1
 0.2613      0
 0.2663      0
 0.2713      0
 0.2763      0
 0.2813      0
 0.2863      0
 0.2913      0
 0.2963      0
 0.3013      1
 0.3063      0
 0.3113      0
 0.3163      0
 0.3213      0
 0.3263      1
 0.3314      2
 0.3364     11
 0.3414     43
 0.3464     58
 0.3514     96
 0.3564    122
 0.3614    102
 0.3664     97
 0.3714     96
 0.3764    124
 0.3814    109
 0.3864    102
 0.3914    106
 0.3964     87
 0.4014     81
 0.4064     87
 0.4114    102
 0.4164     95
 0.4214     99
 0.4264    120
 0.4314     99
 0.4364     95
 0.4414     93
 0.4464     73
 0.4514     91
 0.4565     94
 0.4615     92
 0.4665     95
 0.4715     98
 0.4765     95
 0.4815     77
 0.4865     96
 0.4915     90
 0.4965    106
 0.5015     96
 0.5065     86
 0.5115     91
 0.5165     92
 0.5215     83
 0.5265     82
 0.5315    102
 0.5365     83
 0.5415     84
 0.5465     77
 0.5515     92
 0.5565     83
 0.5615     84
 0.5665    101
 0.5715     89
 0.5765     73
 0.5816     84
 0.5866     80
 0.5916     86
 0.5966     87
 0.6016     96
 0.6066     96
 0.6116     77
 0.6166     79
 0.6216     81
 0.6266     83
 0.6316    108
 0.6366     96
 0.6416     82
 0.6466     80
 0.6516     80
 0.6566     68
 0.6616     84
 0.6666     75
 0.6716     83
 0.6766     79
 0.6816     77
 0.6866     79
 0.6916     82
 0.6966     99
 0.7016     74
 0.7067     77
 0.7117     69
 0.7167     71
 0.7217     75
 0.7267     65
 0.7317     70
 0.7367     68
 0.7417     75
 0.7467     64
 0.7517     78
 0.7567     97
 0.7617     89
 0.7667     89
 0.7717     85
 0.7767     82
 0.7817     76
 0.7867     68
 0.7917     62
 0.7967     62
 0.8017     72
 0.8067     61
 0.8117     80
 0.8167     71
 0.8217     84
 0.8267     76
 0.8318     80
 0.8368     87
 0.8418     98
 0.8468     68
 0.8518     88
 0.8568     56
 0.8618     69
 0.8668     70
 0.8718     71
 0.8768     65
 0.8818     68
 0.8868     81
 0.8918     79
 0.8968     71
 0.9018     78
 0.9068     63
 0.9118     74
 0.9168     62
 0.9218     73
 0.9268     70
 0.9318     87
 0.9368     62
 0.9418     82
 0.9468     67
 0.9518     79
 0.9569     66
 0.9619     75
 0.9669     59
 0.9719     62
 0.9769     65
 0.9819     60
 0.9869     55
 0.9919     71
 0.9969     64
 1.0019     71
 1.0069     58
 1.0119     55
 1.0169     84
 1.0219     71
 1.0269     69
 1.0319     54
 1.0369     51
 1.0419     50
 1.0469     49
 1.0519     76
 1.0569     65
 1.0619     67
 1.0669     67
 1.0719     66
 1.0769     54
  1.082     64
  1.087     71
  1.092     57
  1.097     44
  1.102     73
  1.107     55
  1.112     60
  1.117     69
  1.122     52
  1.127     54
  1.132     78
  1.137     70
  1.142     61
  1.147     59
  1.152     65
  1.157     62
  1.162     69
  1.167     57
  1.172     45
  1.177     58
  1.182     57
  1.187     69
  1.192     49
  1.197     60
  1.202     46
 1.2071     61
 1.2121     57
 1.2171     48
 1.2221     55
 1.2271     56
 1.2321     58
 1.2371     66
 1.2421     65
 1.2471     73
 1.2521     58
 1.2571     48
 1.2621     70
 1.2671     58
 1.2721     67
 1.2771     61
 1.2821     60
 1.2871     65
 1.2921     54
 1.2971     52
 1.3021     63
 1.3071     42
 1.3121     59
 1.3171     59
 1.3221     47
 1.3271     66
 1.3322     52
 1.3372     52
 1.3422     53
 1.3472     59
 1.3522     53
 1.3572     61
 1.3622     52
 1.3672     48
 1.3722     68
 1.3772     46
 1.3822     49
 1.3872     54
 1.3922     63
 1.3972     53
 1.4022     56
 1.4072     55
 1.4122     59
 1.4172     49
 1.4222     65
 1.4272     68
 1.4322     49
 1.4372     51
 1.4422     49
 1.4472     71
 1.4522     64
 1.4573     62
 1.4623     75
 1.4673     61
 1.4723     78
 1.4773     67
 1.4823     61
 1.4873     56
 1.4923     57
 1.4973     64
 1.5023     61
 1.5073     72
 1.5123     85
 1.5173     70
 1.5223     76
 1.5273     74
 1.5323     60
 1.5373     59
 1.5423     67
 1.5473     60
 1.5523     67
 1.5573     82
 1.5623     69
 1.5673     80
 1.5723     96
 1.5773     76
 1.5824     87
 1.5874     77
 1.5924     92
 1.5974     82
 1.6024     80
 1.6074    115
 1.6124    110
 1.6174    110
 1.6224    147
 1.6274    132
 1.6324    158
 1.6374    218
 1.6424    268
 1.6474    323
 1.6524    435
 1.6574    575
 1.6624    679
 1.6674    873
 1.6724   1050
 1.6774   1313
 1.6824   1525
 1.6874   1925
 1.6924   2206
 1.6974   2543
 1.7024   2981
 1.7075   3331
 1.7125   3707
 1.7175   4087
 1.7225   4256
 1.7275   4400
 1.7325   4551
 1.7375   4748
 1.7425   4770
 1.7475   4717
 1.7525   4705
 1.7575   4491
 1.7625   4180
 1.7675   3830
 1.7725   3676
 1.7775   3299
 1.7825   2838
 1.7875   2487
 1.7925   2300
 1.7975   1872
 1.8025   1561
 1.8075   1304
 1.8125   1146
 1.8175    957
 1.8225    841
 1.8275    691
 1.8326    604
 1.8376    494
 1.8426    473
 1.8476    409
 1.8526    340
 1.8576    284
 1.8626    302
 1.8676    217
 1.8726    220
 1.8776    156
 1.8826    180
 1.8876    169
 1.8926    171
 1.8976    124
 1.9026    119
 1.9076    110
 1.9126     83
 1.9176     96
 1.9226     73
 1.9276     50
 1.9326     57
 1.9376     52
 1.9426     57
 1.9476     62
 1.9526     47
 1.9577     64
 1.9627     53
 1.9677     41
 1.9727     34
 1.9777     35
 1.9827     33
 1.9877     35
 1.9927     34
 1.9977     40
 2.0027     41
 2.0077     27
 2.0127     37
 2.0177     37
 2.0227     43
 2.0277     35
 2.0327     36
 2.0377     48
 2.0427     37
 2.0477     41
 2.0527     37
 2.0577     35
 2.0627     32
 2.0677     34
 2.0727     38
 2.0777     33
 2.0828     31
 2.0878     37
 2.0928     32
 2.0978     29
 2.1028     28
 2.1078     37
 2.1128     28
 2.1178     35
 2.1228     35
 2.1278     36
 2.1328     25
 2.1378     36
 2.1428     29
 2.1478     29
 2.1528     34
 2.1578     25
 2.1628     32
 2.1678     25
 2.1728     24
 2.1778     36
 2.1828     29
 2.1878     36
 2.1928     34
 2.1978     35
 2.2028     35
 2.2079     40
 2.2129     21
 2.2179     35
 2.2229     33
 2.2279     27
 2.2329     41
 2.2379     33
 2.2429     39
 2.2479     29
 2.2529     23
 2.2579     35
 2.2629     41
 2.2679     38
 2.2729     52
 2.2779     61
 2.2829     50
 2.2879     64
 2.2929     62
 2.2979     65
 2.3029     62
 2.3079     62
 2.3129     62
 2.3179     82
 2.3229     77
 2.3279     81
  2.333     81
  2.338     88
  2.343    100
  2.348     82
  2.353     91
  2.358    108
  2.363     92
  2.368     87
  2.373     98
  2.378    108
  2.383    110
  2.388    103
  2.393    100
  2.398     99
  2.403    111
  2.408     86
  2.413    105
  2.418    104
  2.423     97
  2.428     88
  2.433     98
  2.438     92
  2.443     90
  2.448     90
  2.453     85
 2.4581     80
 2.4631     85
 2.4681     99
 2.4731     77
 2.4781     82
 2.4831     74
 2.4881     76
 2.4931     81
 2.4981     56
 2.5031     61
 2.5081     69
 2.5131     54
 2.5181     66
 2.5231     47
 2.5281     57
 2.5331     44
 2.5381     60
 2.5431     64
 2.5481     45
 2.5531     56
 2.5581     39
 2.5631     51
 2.5681     52
 2.5731     53
 2.5781     45
 2.5832     39
 2.5882     60
 2.5932     64
 2.5982     60
 2.6032     62
 2.6082     67
 2.6132     75
 2.6182     80
 2.6232     72
 2.6282     72
 2.6332     63
 2.6382     78
 2.6432     62
 2.6482     64
 2.6532     59
 2.6582     63
 2.6632     69
 2.6682     43
 2.6732     42
 2.6782     59
 2.6832     54
 2.6882     45
 2.6932     36
 2.6982     37
 2.7032     43
 2.7083     33
 2.7133     49
 2.7183     28
 2.7233     27
 2.7283     29
 2.7333     34
 2.7383     31
 2.7433     32
 2.7483     30
 2.7533     25
 2.7583     34
 2.7633     23
 2.7683     33
 2.7733     34
 2.7783     30
 2.7833     30
 2.7883     32
 2.7933     31
 2.7983     29
 2.8033     30
 2.8083     35
 2.8133     33
 2.8183     31
 2.8233     33
 2.8283     40
 2.8334     43
 2.8384     45
 2.8434     40
 2.8484     58
 2.8534     56
 2.8584     65
 2.8634     69
 2.8684     72
 2.8734     68
 2.8784     77
 2.8834     83
 2.8884    105
 2.8934    118
 2.8984    146
 2.9034    175
 2.9084    186
 2.9134    214
 2.9184    222
 2.9234    240
 2.9284    257
 2.9334    259
 2.9384    284
 2.9434    298
 2.9484    307
 2.9534    309
 2.9585    343
 2.9635    320
 2.9685    304
 2.9735    310
 2.9785    282
 2.9835    270
 2.9885    301
 2.9935    232
 2.9985    230
 3.0035    207
 3.0085    205
 3.0135    168
 3.0185    148
 3.0235    119
 3.0285    144
 3.0335    114
 3.0385    104
 3.0435     72
 3.0485     81
 3.0535     60
 3.0585     66
 3.0635     62
 3.0685     40
 3.0735     48
 3.0785     56
 3.0836     39
 3.0886     51
 3.0936     41
 3.0986     58
 3.1036     38
 3.1086     66
 3.1136     65
 3.1186     72
 3.1236     72
 3.1286     66
 3.1336     76
 3.1386     66
 3.1436     80
 3.1486     61
 3.1536     73
 3.1586     85
 3.1636     79
 3.1686     98
 3.1736     87
 3.1786     86
 3.1836     81
 3.1886     86
 3.1936     76
 3.1986     84
 3.2036     92
 3.2087     62
 3.2137     85
 3.2187     64
 3.2237     66
 3.2287     63
 3.2337     62
 3.2387     63
 3.2437     71
 3.2487     88
 3.2537     68
 3.2587     70
 3.2637     77
 3.2687     81
 3.2737     76
 3.2787     96
 3.2837     98
 3.2887     83
 3.2937    104
 3.2987    128
 3.3037    113
 3.3087    124
 3.3137    110
 3.3187    108
 3.3237     99
 3.3287    113
 3.3338    109
 3.3388    125
 3.3438     95
 3.3488    109
 3.3538    111
 3.3588     66
 3.3638     83
 3.3688     95
 3.3738     64
 3.3788     73
 3.3838     65
 3.3888     66
 3.3938     58
 3.3988     55
 3.4038     48
 3.4088     56
 3.4138     44
 3.4188     35
 3.4238     35
 3.4288     30
 3.4338     35
 3.4388     36
 3.4438     27
 3.4488     27
 3.4538     28
 3.4589     18
 3.4639     28
 3.4689     29
 3.4739     27
 3.4789     32
 3.4839     23
 3.4889     26
 3.4939     24
 3.4989     21
 3.5039     28
 3.5089     25
 3.5139     26
 3.5189     29
 3.5239     25
 3.5289     22
 3.5339     25
 3.5389     31
 3.5439     30
 3.5489     32
 3.5539     40
 3.5589     37
 3.5639     38
 3.5689     39
 3.5739     33
 3.5789     41
  3.584     38
  3.589     51
  3.594     46
  3.599     54
  3.604     45
  3.609     52
  3.614     66
  3.619     69
  3.624     80
  3.629     89
  3.634     98
  3.639    107
  3.644     99
  3.649     84
  3.654    100
  3.659    123
  3.664    115
  3.669    132
  3.674    146
  3.679    149
  3.684    177
  3.689    167
  3.694    163
  3.699    151
  3.704    140
 3.7091    147
 3.7141    151
 3.7191    144
 3.7241    151
 3.7291    127
 3.7341     99
 3.7391    112
 3.7441     93
 3.7491     90
 3.7541     85
 3.7591     73
 3.7641     64
 3.7691     60
 3.7741     58
 3.7791     53
 3.7841     42
 3.7891     36
 3.7941     36
 3.7991     41
 3.8041     25
 3.8091     27
 3.8141     31
 3.8191     22
 3.8241     19
 3.8291     22
 3.8342     18
 3.8392     23
 3.8442     22
 3.8492     21
 3.8542     24
 3.8592     16
 3.8642     25
 3.8692     17
 3.8742     16
 3.8792     10
 3.8842     23
 3.8892     25
 3.8942     22
 3.8992     30
 3.9042     23
 3.9092     26
 3.9142     19
 3.9192     23
 3.9242     22
 3.9292     25
 3.9342     31
 3.9392     36
 3.9442     29
 3.9492     29
 3.9542     28
 3.9593     36
 3.9643     33
 3.9693     35
 3.9743     24
 3.9793     41
 3.9843     37
 3.9893     27
 3.9943     38
 3.9993     45
 4.0043     34
 4.0093     38
 4.0143     41
 4.0193     46
 4.0243     29
 4.0293     43
 4.0343     35
 4.0393     36
 4.0443     27
 4.0493     33
 4.0543     38
 4.0593     21
 4.0643     29
 4.0693     31
 4.0743     27
 4.0793     19
 4.0844     29
 4.0894     23
 4.0944     19
 4.0994     20
 4.1044     29
 4.1094     23
 4.1144     24
 4.1194     30
 4.1244     13
 4.1294     30
 4.1344     21
 4.1394     29
 4.1444     21
 4.1494     22
 4.1544     22
 4.1594     24
 4.1644     29
 4.1694     19
 4.1744     17
 4.1794     34
 4.1844     27
 4.1894     28
 4.1944     38
 4.1994     35
 4.2044     36
 4.2095     45
 4.2145     40
 4.2195     37
 4.2245     45
 4.2295     61
 4.2345     68
 4.2395     69
 4.2445     57
 4.2495     77
 4.2545     70
 4.2595     74
 4.2645     85
 4.2695     93
 4.2745     84
 4.2795    103
 4.2845     89
 4.2895     77
 4.2945    113
 4.2995     81
 4.3045     84
 4.3095     77
 4.3145     93
 4.3195     70
 4.3245     80
 4.3295     70
 4.3346     63
 4.3396     69
 4.3446     58
 4.3496     61
 4.3546     49
 4.3596     61
 4.3646     38
 4.3696     39
 4.3746     49
 4.3796     41
 4.3846     26
 4.3896     29
 4.3946     29
 4.3996     28
 4.4046     18
 4.4096     27
 4.4146     38
 4.4196     24
 4.4246     30
 4.4296     24
 4.4346     23
 4.4396     27
 4.4446     24
 4.4496     20
 4.4546     29
 4.4597     21
 4.4647     27
 4.4697     34
 4.4747     25
 4.4797     39
 4.4847     34
 4.4897     27
 4.4947     31
 4.4997     24
 4.5047     32
 4.5097     30
 4.5147     39
 4.5197     34
 4.5247     29
 4.5297     39
 4.5347     43
 4.5397     32
 4.5447     40
 4.5497     35
 4.5547     64
 4.5597     48
 4.5647     42
 4.5697     46
 4.5747     59
 4.5797     64
 4.5848     51
 4.5898     52
 4.5948     73
 4.5998     68
 4.6048     70
 4.6098     89
 4.6148     82
 4.6198     85
 4.6248     74
 4.6298     87
 4.6348     75
 4.6398     66
 4.6448     81
 4.6498     83
 4.6548     81
 4.6598     71
 4.6648     92
 4.6698     66
 4.6748     76
 4.6798     72
 4.6848     75
 4.6898     63
 4.6948     61
 4.6998     64
 4.7048     65
 4.7099     54
 4.7149     54
 4.7199     62
 4.7249     55
 4.7299     44
 4.7349     53
 4.7399     45
 4.7449     58
 4.7499     40
 4.7549     39
 4.7599     37
 4.7649     30
 4.7699     37
 4.7749     24
 4.7799     30
 4.7849     40
 4.7899     32
 4.7949     27
 4.7999     29
 4.8049     22
 4.8099     28
 4.8149     21
 4.8199     35
 4.8249     22
 4.8299     29
  4.835     30
   4.84     31
  4.845     21
   4.85     34
  4.855     30
   4.86     34
  4.865     23
   4.87     31
  4.875     25
   4.88     21
  4.885     37
   4.89     25
  4.895     34
    4.9     29
  4.905     19
   4.91     34
  4.915     30
   4.92     31
  4.925     39
   4.93     30
  4.935     39
   4.94     27
  4.945     32
   4.95     31
  4.955     36
 4.9601     26
 4.9651     28
 4.9701     25
 4.9751     37
 4.9801     30
 4.9851     26
 4.9901     31
 4.9951     23
 5.0001     19
 5.0051     31
 5.0101     15
 5.0151     22
 5.0201     24
 5.0251     26
 5.0301     17
 5.0351     17
 5.0401     15
 5.0451     11
 5.0501     16
 5.0551     22
 5.0601     13
 5.0651     16
 5.0701     19
 5.0751     15
 5.0801     17
 5.0852     20
 5.0902     17
 5.0952     17
 5.1002     15
 5.1052     15
 5.1102     18
 5.1152     12
 5.1202     12
 5.1252     14
 5.1302     17
 5.1352     16
 5.1402     18
 5.1452     19
 5.1502     15
 5.1552     24
 5.1602     15
 5.1652     23
 5.1702     11
 5.1752     15
 5.1802     13
 5.1852     21
 5.1902     18
 5.1952     10
 5.2002     22
 5.2052     15
 5.2103     16
 5.2153     17
 5.2203     29
 5.2253     20
 5.2303     22
 5.2353     22
 5.2403     24
 5.2453     26
 5.2503     29
 5.2553     21
 5.2603     21
 5.2653     26
 5.2703     34
 5.2753     29
 5.2803     18
 5.2853     20
 5.2903     22
 5.2953     24
 5.3003     26
 5.3053     29
 5.3103     25
 5.3153     26
 5.3203     22
 5.3253     19
 5.3303     15
 5.3354     12
 5.3404     19
 5.3454     14
 5.3504     15
 5.3554     19
 5.3604     15
 5.3654     16
 5.3704     16
 5.3754     19
 5.3804     19
 5.3854     21
 5.3904     10
 5.3954     16
 5.4004     13
 5.4054     17
 5.4104     14
 5.4154     13
 5.4204     18
 5.4254     14
 5.4304     17
 5.4354     12
 5.4404     13
 5.4454     14
 5.4504     15
 5.4554     18
 5.4605     10
 5.4655     14
 5.4705     20
 5.4755     19
 5.4805     12
 5.4855     11
 5.4905     11
 5.4955     18
 5.5005     19
 5.5055     21
 5.5105     20
 5.5155     20
 5.5205     14
 5.5255     22
 5.5305     24
 5.5355     14
 5.5405     19
 5.5455     22
 5.5505     12
 5.5555     18
 5.5605     22
 5.5655     20
 5.5705     13
 5.5755     11
 5.5805     22
 5.5856     19
 5.5906     16
 5.5956     13
 5.6006     22
 5.6056     14
 5.6106     15
 5.6156     19
 5.6206     17
 5.6256     13
 5.6306     10
 5.6356     12
 5.6406     13
 5.6456     16
 5.6506     10
 5.6556      7
