RÖNTEC GmbH Berlin, Germany
Quantax 1.2

Date: 17/01/2019 10:53:08 AM
Real time: 503987
Life time: 500000
Pulse density: 2722


Detector type: XFLASH
Window type: 
Detector thickness: 0.45
Si dead layer:0

Calibration, lin.: 5.004
Calibration, abs.: -484.3
Mn FWHM: 135.26
Fano factor: 0.11
Channels: 4096

Energy Counts
-0.4843      0
-0.4793      0
-0.4743      0
-0.4693      0
-0.4643      0
-0.4593      0
-0.4543      0
-0.4493      0
-0.4443      0
-0.4393      0
-0.4343      0
-0.4293      0
-0.4243      0
-0.4192      0
-0.4142      0
-0.4092      0
-0.4042      0
-0.3992      0
-0.3942      0
-0.3892      0
-0.3842      0
-0.3792      0
-0.3742      0
-0.3692      0
-0.3642      0
-0.3592      0
-0.3542      0
-0.3492      0
-0.3442      0
-0.3392      0
-0.3342      0
-0.3292      0
-0.3242      0
-0.3192      0
-0.3142      0
-0.3092      0
-0.3042      0
-0.2992      0
-0.2941      0
-0.2891      0
-0.2841      0
-0.2791      0
-0.2741      0
-0.2691      0
-0.2641      0
-0.2591      0
-0.2541      0
-0.2491      0
-0.2441      0
-0.2391      0
-0.2341      0
-0.2291      0
-0.2241      0
-0.2191      0
-0.2141      0
-0.2091      0
-0.2041      0
-0.1991      0
-0.1941      0
-0.1891      0
-0.1841      0
-0.1791      0
-0.1741      0
 -0.169      0
 -0.164      0
 -0.159      0
 -0.154      1
 -0.149      1
 -0.144      0
 -0.139      5
 -0.134      8
 -0.129     10
 -0.124     20
 -0.119     55
 -0.114    132
 -0.109    239
 -0.104    474
 -0.099    852
 -0.094   1461
 -0.089   2731
 -0.084   4762
 -0.079   7816
 -0.074  12698
 -0.069  19834
 -0.064  30022
 -0.059  44155
 -0.054  63090
 -0.049  86391
-0.0439 115686
-0.0389 148869
-0.0339 186903
-0.0289 225123
-0.0239 263125
-0.0189 298509
-0.0139 328624
-0.0089 347640
-0.0039 358249
 0.0011 355882
 0.0061 343825
 0.0111 320040
 0.0161 289547
 0.0211 252574
 0.0261 214584
 0.0311 175892
 0.0361 139417
 0.0411 107700
 0.0461  80691
 0.0511  58237
 0.0561  40267
 0.0611  27503
 0.0661  17968
 0.0711  11471
 0.0761   7208
 0.0812   4139
 0.0862   2452
 0.0912   1420
 0.0962    767
 0.1012    389
 0.1062    238
 0.1112    125
 0.1162     61
 0.1212     29
 0.1262     18
 0.1312     12
 0.1362      6
 0.1412      5
 0.1462      3
 0.1512      2
 0.1562      4
 0.1612      5
 0.1662      2
 0.1712      3
 0.1762      2
 0.1812      2
 0.1862      1
 0.1912      1
 0.1962      2
 0.2012      1
 0.2063      2
 0.2113      3
 0.2163      1
 0.2213      2
 0.2263      3
 0.2313      3
 0.2363      1
 0.2413      0
 0.2463      2
 0.2513      2
 0.2563      0
 0.2613      0
 0.2663      0
 0.2713      0
 0.2763      0
 0.2813      0
 0.2863      0
 0.2913      1
 0.2963      0
 0.3013      0
 0.3063      0
 0.3113      0
 0.3163      0
 0.3213      0
 0.3263      0
 0.3314      5
 0.3364     12
 0.3414     34
 0.3464     83
 0.3514     85
 0.3564     94
 0.3614     94
 0.3664     93
 0.3714    100
 0.3764     93
 0.3814     90
 0.3864    110
 0.3914     92
 0.3964     73
 0.4014    114
 0.4064     98
 0.4114     88
 0.4164     88
 0.4214     83
 0.4264     90
 0.4314     98
 0.4364     78
 0.4414     92
 0.4464     77
 0.4514    107
 0.4565     81
 0.4615     90
 0.4665     80
 0.4715     89
 0.4765     94
 0.4815     74
 0.4865     72
 0.4915     98
 0.4965     88
 0.5015     77
 0.5065     69
 0.5115     69
 0.5165     70
 0.5215     79
 0.5265     84
 0.5315     81
 0.5365     75
 0.5415     81
 0.5465     79
 0.5515     74
 0.5565     87
 0.5615     63
 0.5665     71
 0.5715     67
 0.5765     79
 0.5816     75
 0.5866     84
 0.5916     65
 0.5966     67
 0.6016     67
 0.6066     62
 0.6116     70
 0.6166     83
 0.6216     64
 0.6266     61
 0.6316     78
 0.6366     69
 0.6416     83
 0.6466     70
 0.6516     81
 0.6566     79
 0.6616     64
 0.6666     66
 0.6716     74
 0.6766     89
 0.6816     73
 0.6866     67
 0.6916     89
 0.6966     78
 0.7016     60
 0.7067     71
 0.7117     57
 0.7167     75
 0.7217     62
 0.7267     53
 0.7317     64
 0.7367     74
 0.7417     69
 0.7467     67
 0.7517     71
 0.7567     76
 0.7617     69
 0.7667     79
 0.7717     72
 0.7767     70
 0.7817     56
 0.7867     57
 0.7917     60
 0.7967     52
 0.8017     70
 0.8067     69
 0.8117     54
 0.8167     65
 0.8217     40
 0.8267     75
 0.8318     61
 0.8368     72
 0.8418     79
 0.8468     77
 0.8518     71
 0.8568     72
 0.8618     84
 0.8668     67
 0.8718     64
 0.8768     59
 0.8818     68
 0.8868     82
 0.8918     68
 0.8968     68
 0.9018     65
 0.9068     56
 0.9118     55
 0.9168     66
 0.9218     55
 0.9268     58
 0.9318     71
 0.9368     64
 0.9418     64
 0.9468     45
 0.9518     65
 0.9569     59
 0.9619     58
 0.9669     61
 0.9719     54
 0.9769     63
 0.9819     70
 0.9869     54
 0.9919     47
 0.9969     67
 1.0019     72
 1.0069     61
 1.0119     60
 1.0169     64
 1.0219     70
 1.0269     60
 1.0319     52
 1.0369     66
 1.0419     54
 1.0469     62
 1.0519     62
 1.0569     61
 1.0619     78
 1.0669     80
 1.0719     57
 1.0769     46
  1.082     54
  1.087     54
  1.092     59
  1.097     70
  1.102     52
  1.107     49
  1.112     52
  1.117     50
  1.122     40
  1.127     36
  1.132     49
  1.137     49
  1.142     42
  1.147     44
  1.152     48
  1.157     40
  1.162     57
  1.167     40
  1.172     46
  1.177     47
  1.182     59
  1.187     55
  1.192     48
  1.197     52
  1.202     52
 1.2071     46
 1.2121     45
 1.2171     46
 1.2221     52
 1.2271     41
 1.2321     60
 1.2371     49
 1.2421     49
 1.2471     50
 1.2521     43
 1.2571     46
 1.2621     51
 1.2671     45
 1.2721     59
 1.2771     50
 1.2821     55
 1.2871     52
 1.2921     44
 1.2971     41
 1.3021     59
 1.3071     41
 1.3121     35
 1.3171     46
 1.3221     52
 1.3271     65
 1.3322     42
 1.3372     41
 1.3422     30
 1.3472     47
 1.3522     43
 1.3572     46
 1.3622     41
 1.3672     37
 1.3722     38
 1.3772     41
 1.3822     45
 1.3872     49
 1.3922     42
 1.3972     36
 1.4022     29
 1.4072     47
 1.4122     44
 1.4172     44
 1.4222     53
 1.4272     53
 1.4322     46
 1.4372     30
 1.4422     42
 1.4472     41
 1.4522     27
 1.4573     38
 1.4623     39
 1.4673     51
 1.4723     50
 1.4773     44
 1.4823     42
 1.4873     37
 1.4923     51
 1.4973     50
 1.5023     39
 1.5073     59
 1.5123     53
 1.5173     67
 1.5223     40
 1.5273     54
 1.5323     39
 1.5373     51
 1.5423     49
 1.5473     41
 1.5523     61
 1.5573     52
 1.5623     61
 1.5673     53
 1.5723     52
 1.5773     53
 1.5824     66
 1.5874     46
 1.5924     56
 1.5974     53
 1.6024     55
 1.6074     47
 1.6124     39
 1.6174     42
 1.6224     50
 1.6274     56
 1.6324     68
 1.6374     84
 1.6424     94
 1.6474    143
 1.6524    170
 1.6574    195
 1.6624    223
 1.6674    281
 1.6724    349
 1.6774    409
 1.6824    518
 1.6874    628
 1.6924    718
 1.6974    817
 1.7024    963
 1.7075   1065
 1.7125   1188
 1.7175   1282
 1.7225   1466
 1.7275   1458
 1.7325   1465
 1.7375   1544
 1.7425   1522
 1.7475   1610
 1.7525   1498
 1.7575   1443
 1.7625   1407
 1.7675   1268
 1.7725   1151
 1.7775   1022
 1.7825    966
 1.7875    834
 1.7925    711
 1.7975    650
 1.8025    585
 1.8075    459
 1.8125    394
 1.8175    362
 1.8225    282
 1.8275    245
 1.8326    241
 1.8376    172
 1.8426    161
 1.8476    132
 1.8526    121
 1.8576    129
 1.8626    126
 1.8676     98
 1.8726    115
 1.8776     95
 1.8826     99
 1.8876    111
 1.8926    102
 1.8976     88
 1.9026    112
 1.9076    101
 1.9126    110
 1.9176    100
 1.9226    126
 1.9276     99
 1.9326    115
 1.9376    128
 1.9426    123
 1.9476     91
 1.9526    132
 1.9577    143
 1.9627    112
 1.9677    120
 1.9727     94
 1.9777    116
 1.9827    101
 1.9877     79
 1.9927     80
 1.9977     70
 2.0027     73
 2.0077     55
 2.0127     64
 2.0177     49
 2.0227     57
 2.0277     49
 2.0327     49
 2.0377     45
 2.0427     39
 2.0477     47
 2.0527     32
 2.0577     37
 2.0627     42
 2.0677     33
 2.0727     35
 2.0777     27
 2.0828     43
 2.0878     31
 2.0928     29
 2.0978     36
 2.1028     37
 2.1078     33
 2.1128     33
 2.1178     44
 2.1228     29
 2.1278     37
 2.1328     33
 2.1378     37
 2.1428     27
 2.1478     38
 2.1528     26
 2.1578     41
 2.1628     24
 2.1678     37
 2.1728     37
 2.1778     43
 2.1828     29
 2.1878     29
 2.1928     36
 2.1978     32
 2.2028     45
 2.2079     39
 2.2129     30
 2.2179     39
 2.2229     34
 2.2279     30
 2.2329     45
 2.2379     40
 2.2429     44
 2.2479     35
 2.2529     44
 2.2579     44
 2.2629     43
 2.2679     41
 2.2729     40
 2.2779     30
 2.2829     47
 2.2879     53
 2.2929     50
 2.2979     41
 2.3029     47
 2.3079     29
 2.3129     45
 2.3179     35
 2.3229     45
 2.3279     42
  2.333     35
  2.338     38
  2.343     38
  2.348     33
  2.353     30
  2.358     29
  2.363     25
  2.368     34
  2.373     49
  2.378     34
  2.383     39
  2.388     29
  2.393     34
  2.398     37
  2.403     19
  2.408     26
  2.413     25
  2.418     22
  2.423     22
  2.428     25
  2.433     33
  2.438     19
  2.443     29
  2.448     24
  2.453     33
 2.4581     21
 2.4631     20
 2.4681     25
 2.4731     31
 2.4781     34
 2.4831     36
 2.4881     33
 2.4931     29
 2.4981     34
 2.5031     34
 2.5081     29
 2.5131     27
 2.5181     27
 2.5231     38
 2.5281     46
 2.5331     46
 2.5381     44
 2.5431     48
 2.5481     53
 2.5531     44
 2.5581     68
 2.5631     73
 2.5681     80
 2.5731     80
 2.5781     73
 2.5832    115
 2.5882    117
 2.5932    125
 2.5982    134
 2.6032    129
 2.6082    133
 2.6132    125
 2.6182    140
 2.6232    152
 2.6282    140
 2.6332    149
 2.6382    139
 2.6432    125
 2.6482    144
 2.6532    102
 2.6582    108
 2.6632    104
 2.6682     99
 2.6732    101
 2.6782     80
 2.6832     79
 2.6882     72
 2.6932     72
 2.6982     65
 2.7032     57
 2.7083     47
 2.7133     50
 2.7183     40
 2.7233     41
 2.7283     33
 2.7333     44
 2.7383     33
 2.7433     47
 2.7483     35
 2.7533     28
 2.7583     30
 2.7633     36
 2.7683     40
 2.7733     35
 2.7783     33
 2.7833     40
 2.7883     50
 2.7933     37
 2.7983     50
 2.8033     39
 2.8083     36
 2.8133     46
 2.8183     42
 2.8233     44
 2.8283     46
 2.8334     60
 2.8384     65
 2.8434     58
 2.8484     70
 2.8534     69
 2.8584     61
 2.8634     75
 2.8684     90
 2.8734     88
 2.8784     99
 2.8834    113
 2.8884    131
 2.8934    138
 2.8984    133
 2.9034    163
 2.9084    206
 2.9134    222
 2.9184    214
 2.9234    232
 2.9284    255
 2.9334    291
 2.9384    309
 2.9434    304
 2.9484    313
 2.9534    318
 2.9585    353
 2.9635    300
 2.9685    314
 2.9735    305
 2.9785    325
 2.9835    309
 2.9885    267
 2.9935    245
 2.9985    252
 3.0035    245
 3.0085    213
 3.0135    197
 3.0185    157
 3.0235    146
 3.0285    138
 3.0335    124
 3.0385     99
 3.0435     90
 3.0485     62
 3.0535     77
 3.0585     67
 3.0635     48
 3.0685     55
 3.0735     71
 3.0785     56
 3.0836     39
 3.0886     48
 3.0936     41
 3.0986     46
 3.1036     62
 3.1086     39
 3.1136     38
 3.1186     37
 3.1236     42
 3.1286     44
 3.1336     53
 3.1386     40
 3.1436     58
 3.1486     61
 3.1536     59
 3.1586     69
 3.1636     70
 3.1686     69
 3.1736     58
 3.1786     69
 3.1836     96
 3.1886     61
 3.1936     77
 3.1986     87
 3.2036     78
 3.2087     80
 3.2137     99
 3.2187    100
 3.2237    113
 3.2287    103
 3.2337    114
 3.2387    145
 3.2437    169
 3.2487    175
 3.2537    200
 3.2587    214
 3.2637    244
 3.2687    243
 3.2737    274
 3.2787    269
 3.2837    349
 3.2887    338
 3.2937    380
 3.2987    337
 3.3037    375
 3.3087    426
 3.3137    401
 3.3187    382
 3.3237    385
 3.3287    391
 3.3338    394
 3.3388    384
 3.3438    344
 3.3488    307
 3.3538    296
 3.3588    288
 3.3638    264
 3.3688    263
 3.3738    235
 3.3788    192
 3.3838    176
 3.3888    154
 3.3938    126
 3.3988    123
 3.4038     95
 3.4088     88
 3.4138     85
 3.4188     70
 3.4238     62
 3.4288     80
 3.4338     47
 3.4388     60
 3.4438     49
 3.4488     59
 3.4538     46
 3.4589     43
 3.4639     42
 3.4689     51
 3.4739     58
 3.4789     70
 3.4839     59
 3.4889     50
 3.4939     56
 3.4989     78
 3.5039     60
 3.5089     73
 3.5139     86
 3.5189    104
 3.5239    112
 3.5289    101
 3.5339    119
 3.5389    131
 3.5439    126
 3.5489    173
 3.5539    215
 3.5589    265
 3.5639    289
 3.5689    344
 3.5739    430
 3.5789    523
  3.584    621
  3.589    722
  3.594    911
  3.599    973
  3.604   1321
  3.609   1506
  3.614   1718
  3.619   1963
  3.624   2318
  3.629   2729
  3.634   3038
  3.639   3412
  3.644   3758
  3.649   4193
  3.654   4683
  3.659   5054
  3.664   5341
  3.669   5661
  3.674   6053
  3.679   6249
  3.684   6523
  3.689   6533
  3.694   6686
  3.699   6694
  3.704   6647
 3.7091   6414
 3.7141   6216
 3.7191   5927
 3.7241   5650
 3.7291   5272
 3.7341   4919
 3.7391   4531
 3.7441   4047
 3.7491   3674
 3.7541   3190
 3.7591   2876
 3.7641   2590
 3.7691   2063
 3.7741   1848
 3.7791   1571
 3.7841   1351
 3.7891   1025
 3.7941    902
 3.7991    747
 3.8041    622
 3.8091    458
 3.8141    374
 3.8191    306
 3.8241    246
 3.8291    205
 3.8342    180
 3.8392    125
 3.8442    110
 3.8492    106
 3.8542     94
 3.8592     88
 3.8642    101
 3.8692     91
 3.8742     74
 3.8792     89
 3.8842    120
 3.8892     83
 3.8942    106
 3.8992    129
 3.9042    142
 3.9092    153
 3.9142    171
 3.9192    196
 3.9242    208
 3.9292    253
 3.9342    279
 3.9392    344
 3.9442    394
 3.9492    384
 3.9542    455
 3.9593    502
 3.9643    546
 3.9693    610
 3.9743    657
 3.9793    711
 3.9843    798
 3.9893    875
 3.9943    912
 3.9993    862
 4.0043    898
 4.0093    964
 4.0143    959
 4.0193    935
 4.0243    940
 4.0293    918
 4.0343    869
 4.0393    887
 4.0443    850
 4.0493    795
 4.0543    780
 4.0593    705
 4.0643    686
 4.0693    580
 4.0743    527
 4.0793    483
 4.0844    419
 4.0894    399
 4.0944    331
 4.0994    286
 4.1044    260
 4.1094    208
 4.1144    175
 4.1194    137
 4.1244    114
 4.1294     99
 4.1344     95
 4.1394     84
 4.1444     75
 4.1494     54
 4.1544     42
 4.1594     38
 4.1644     38
 4.1694     31
 4.1744     27
 4.1794     26
 4.1844     29
 4.1894     19
 4.1944     20
 4.1994     24
 4.2044     27
 4.2095     18
 4.2145     22
 4.2195     11
 4.2245     19
 4.2295     16
 4.2345     25
 4.2395     20
 4.2445     20
 4.2495     15
 4.2545     20
 4.2595     21
 4.2645     22
 4.2695     19
 4.2745     26
 4.2795     19
 4.2845     19
 4.2895     11
 4.2945     11
 4.2995     13
 4.3045     20
 4.3095     24
 4.3145     22
 4.3195     18
 4.3245     19
 4.3295     15
 4.3346     14
 4.3396     25
 4.3446     26
 4.3496     20
 4.3546     24
 4.3596     18
 4.3646     25
 4.3696     18
 4.3746     24
 4.3796     23
 4.3846     34
 4.3896     29
 4.3946     30
 4.3996     32
 4.4046     23
 4.4096     16
 4.4146     39
 4.4196     26
 4.4246     28
 4.4296     40
 4.4346     50
 4.4396     43
 4.4446     53
 4.4496     45
 4.4546     42
 4.4597     52
 4.4647     51
 4.4697     52
 4.4747     59
 4.4797     53
 4.4847     51
 4.4897     62
 4.4947     48
 4.4997     51
 4.5047     56
 4.5097     45
 4.5147     59
 4.5197     57
 4.5247     42
 4.5297     45
 4.5347     44
 4.5397     40
 4.5447     37
 4.5497     33
 4.5547     37
 4.5597     32
 4.5647     23
 4.5697     28
 4.5747     27
 4.5797     30
 4.5848     47
 4.5898     24
 4.5948     19
 4.5998     31
 4.6048     37
 4.6098     31
 4.6148     30
 4.6198     27
 4.6248     29
 4.6298     28
 4.6348     35
 4.6398     27
 4.6448     30
 4.6498     17
 4.6548     39
 4.6598     33
 4.6648     28
 4.6698     23
 4.6748     23
 4.6798     21
 4.6848     28
 4.6898     30
 4.6948     28
 4.6998     26
 4.7048     25
 4.7099     26
 4.7149     20
 4.7199     20
 4.7249     26
 4.7299     23
 4.7349     22
 4.7399     28
 4.7449     37
 4.7499     36
 4.7549     30
 4.7599     20
 4.7649     35
 4.7699     35
 4.7749     47
 4.7799     34
 4.7849     47
 4.7899     29
 4.7949     48
 4.7999     41
 4.8049     51
 4.8099     51
 4.8149     52
 4.8199     44
 4.8249     43
 4.8299     54
  4.835     66
   4.84     65
  4.845     49
   4.85     58
  4.855     51
   4.86     54
  4.865     54
   4.87     51
  4.875     48
   4.88     42
  4.885     42
   4.89     39
  4.895     40
    4.9     55
  4.905     35
   4.91     33
  4.915     28
   4.92     46
  4.925     36
   4.93     43
  4.935     40
   4.94     34
  4.945     38
   4.95     30
  4.955     29
 4.9601     24
 4.9651     20
 4.9701     21
 4.9751     23
 4.9801     13
 4.9851     25
 4.9901     22
 4.9951     18
 5.0001     15
 5.0051     18
 5.0101     22
 5.0151     20
 5.0201     16
 5.0251     18
 5.0301     15
 5.0351     19
 5.0401     25
 5.0451     17
 5.0501      7
 5.0551     13
 5.0601     21
 5.0651     16
 5.0701     13
 5.0751     10
 5.0801     13
 5.0852     19
 5.0902     22
 5.0952     21
 5.1002     18
 5.1052     20
 5.1102     21
 5.1152     15
 5.1202     24
 5.1252     21
 5.1302     21
 5.1352     27
 5.1402     18
 5.1452     18
 5.1502     20
 5.1552     21
 5.1602     22
 5.1652     20
 5.1702     21
 5.1752     10
 5.1802     18
 5.1852     34
 5.1902     33
 5.1952     26
 5.2002     30
 5.2052     29
 5.2103     11
 5.2153     20
 5.2203     24
 5.2253     18
 5.2303     26
 5.2353     17
 5.2403     25
 5.2453     22
 5.2503     18
 5.2553     27
 5.2603     27
 5.2653     25
 5.2703     30
 5.2753     22
 5.2803     25
 5.2853     19
 5.2903     34
 5.2953     26
 5.3003     21
 5.3053     25
 5.3103     23
 5.3153     21
 5.3203     16
 5.3253     24
 5.3303     24
 5.3354     17
 5.3404     27
 5.3454     22
 5.3504     21
 5.3554     21
 5.3604     17
 5.3654     19
 5.3704     25
 5.3754     25
 5.3804     18
 5.3854     15
 5.3904     21
 5.3954     20
 5.4004     19
 5.4054     20
 5.4104     16
 5.4154     16
 5.4204     17
 5.4254     17
 5.4304     26
 5.4354     21
 5.4404     14
 5.4454     17
 5.4504     20
 5.4554     13
 5.4605     17
 5.4655     17
 5.4705     20
 5.4755     16
 5.4805     18
 5.4855     14
 5.4905     13
 5.4955     21
 5.5005     16
 5.5055     18
 5.5105     16
 5.5155     17
 5.5205     18
 5.5255     19
 5.5305     22
 5.5355     21
 5.5405     21
 5.5455     21
 5.5505     24
 5.5555     13
 5.5605     10
 5.5655     14
 5.5705     16
 5.5755     23
 5.5805     13
 5.5856     16
 5.5906     19
 5.5956     16
 5.6006     19
 5.6056      8
 5.6106     11
 5.6156     13
 5.6206     16
 5.6256     15
 5.6306     19
 5.6356     22
 5.6406     21
 5.6456     13
 5.6506     15
 5.6556     10
