RÖNTEC GmbH Berlin, Germany
Quantax 1.2

Date: 3/19/2019 10:30:08 AM
Real time: 786738
Life time: 600002
Pulse density: 91639


Detector type: XFLASH
Window type: 
Detector thickness: 0.45
Si dead layer:0

Calibration, lin.: 5.004
Calibration, abs.: -484.3
Mn FWHM: 135.26
Fano factor: 0.11
Channels: 4096

Energy Counts
-0.4843      0
-0.4793      0
-0.4743      0
-0.4693      0
-0.4643      0
-0.4593      0
-0.4543      0
-0.4493      0
-0.4443      0
-0.4393      0
-0.4343      0
-0.4293      0
-0.4243      0
-0.4192      0
-0.4142      0
-0.4092      0
-0.4042      0
-0.3992      0
-0.3942      0
-0.3892      0
-0.3842      0
-0.3792      0
-0.3742      0
-0.3692      0
-0.3642      0
-0.3592      0
-0.3542      0
-0.3492      0
-0.3442      0
-0.3392      0
-0.3342      0
-0.3292      0
-0.3242      0
-0.3192      0
-0.3142      0
-0.3092      0
-0.3042      0
-0.2992      0
-0.2941      0
-0.2891      0
-0.2841      0
-0.2791      0
-0.2741      0
-0.2691      0
-0.2641      0
-0.2591      0
-0.2541      0
-0.2491      0
-0.2441      0
-0.2391      0
-0.2341      0
-0.2291      0
-0.2241      0
-0.2191      0
-0.2141      0
-0.2091      0
-0.2041      0
-0.1991      0
-0.1941      0
-0.1891      0
-0.1841      0
-0.1791      0
-0.1741      0
 -0.169      0
 -0.164      0
 -0.159      0
 -0.154      0
 -0.149      2
 -0.144      1
 -0.139      3
 -0.134     12
 -0.129     18
 -0.124     31
 -0.119     76
 -0.114    163
 -0.109    355
 -0.104    619
 -0.099   1120
 -0.094   2098
 -0.089   3573
 -0.084   6040
 -0.079  10128
 -0.074  16364
 -0.069  25137
 -0.064  38008
 -0.059  54966
 -0.054  77250
 -0.049 106337
-0.0439 140581
-0.0389 179237
-0.0339 223566
-0.0289 269440
-0.0239 313227
-0.0189 354201
-0.0139 387460
-0.0089 411112
-0.0039 421489
 0.0011 419398
 0.0061 404734
 0.0111 380174
 0.0161 342830
 0.0211 302181
 0.0261 258004
 0.0311 212359
 0.0361 170920
 0.0411 132292
 0.0461  99922
 0.0511  73400
 0.0561  52448
 0.0611  36288
 0.0661  24257
 0.0711  16143
 0.0761  10264
 0.0812   6662
 0.0862   4115
 0.0912   2586
 0.0962   1567
 0.1012   1066
 0.1062    721
 0.1112    561
 0.1162    481
 0.1212    389
 0.1262    350
 0.1312    310
 0.1362    284
 0.1412    277
 0.1462    264
 0.1512    229
 0.1562    204
 0.1612    173
 0.1662    139
 0.1712    116
 0.1762    105
 0.1812     98
 0.1862     99
 0.1912     88
 0.1962     98
 0.2012     74
 0.2063     58
 0.2113     56
 0.2163     57
 0.2213     69
 0.2263     66
 0.2313     48
 0.2363     34
 0.2413     43
 0.2463     30
 0.2513     38
 0.2563     30
 0.2613     25
 0.2663     20
 0.2713     25
 0.2763     18
 0.2813     26
 0.2863      4
 0.2913     12
 0.2963     13
 0.3013     17
 0.3063      9
 0.3113     18
 0.3163     23
 0.3213     17
 0.3263     32
 0.3314     41
 0.3364     98
 0.3414    291
 0.3464    836
 0.3514   1922
 0.3564   2852
 0.3614   3520
 0.3664   3788
 0.3714   3785
 0.3764   3800
 0.3814   3730
 0.3864   3850
 0.3914   3774
 0.3964   3707
 0.4014   3719
 0.4064   3640
 0.4114   3628
 0.4164   3654
 0.4214   3507
 0.4264   3507
 0.4314   3529
 0.4364   3520
 0.4414   3390
 0.4464   3420
 0.4514   3370
 0.4565   3329
 0.4615   3204
 0.4665   3397
 0.4715   3295
 0.4765   3239
 0.4815   3112
 0.4865   3155
 0.4915   3184
 0.4965   3149
 0.5015   3073
 0.5065   3215
 0.5115   3132
 0.5165   3105
 0.5215   3087
 0.5265   3126
 0.5315   3157
 0.5365   3065
 0.5415   3122
 0.5465   3069
 0.5515   3023
 0.5565   3096
 0.5615   2993
 0.5665   3090
 0.5715   3001
 0.5765   3059
 0.5816   3043
 0.5866   3043
 0.5916   2903
 0.5966   2900
 0.6016   2861
 0.6066   2946
 0.6116   2866
 0.6166   2834
 0.6216   2803
 0.6266   2805
 0.6316   2721
 0.6366   2725
 0.6416   2773
 0.6466   2743
 0.6516   2721
 0.6566   2662
 0.6616   2801
 0.6666   2755
 0.6716   2653
 0.6766   2662
 0.6816   2634
 0.6866   2712
 0.6916   2643
 0.6966   2702
 0.7016   2612
 0.7067   2607
 0.7117   2644
 0.7167   2596
 0.7217   2592
 0.7267   2600
 0.7317   2627
 0.7367   2587
 0.7417   2546
 0.7467   2566
 0.7517   2581
 0.7567   2649
 0.7617   2606
 0.7667   2439
 0.7717   2637
 0.7767   2600
 0.7817   2541
 0.7867   2535
 0.7917   2572
 0.7967   2528
 0.8017   2449
 0.8067   2617
 0.8117   2392
 0.8167   2568
 0.8217   2544
 0.8267   2472
 0.8318   2545
 0.8368   2414
 0.8418   2484
 0.8468   2344
 0.8518   2446
 0.8568   2462
 0.8618   2512
 0.8668   2514
 0.8718   2418
 0.8768   2457
 0.8818   2439
 0.8868   2486
 0.8918   2519
 0.8968   2479
 0.9018   2413
 0.9068   2374
 0.9118   2385
 0.9168   2320
 0.9218   2471
 0.9268   2456
 0.9318   2384
 0.9368   2351
 0.9418   2403
 0.9468   2471
 0.9518   2330
 0.9569   2317
 0.9619   2310
 0.9669   2335
 0.9719   2425
 0.9769   2186
 0.9819   2378
 0.9869   2393
 0.9919   2298
 0.9969   2273
 1.0019   2228
 1.0069   2301
 1.0119   2393
 1.0169   2336
 1.0219   2240
 1.0269   2269
 1.0319   2306
 1.0369   2277
 1.0419   2292
 1.0469   2272
 1.0519   2301
 1.0569   2196
 1.0619   2207
 1.0669   2327
 1.0719   2202
 1.0769   2180
  1.082   2148
  1.087   2238
  1.092   2171
  1.097   2140
  1.102   2058
  1.107   2205
  1.112   2073
  1.117   2069
  1.122   2099
  1.127   2059
  1.132   2062
  1.137   2119
  1.142   2058
  1.147   2146
  1.152   1987
  1.157   1964
  1.162   2032
  1.167   2092
  1.172   2006
  1.177   2091
  1.182   1999
  1.187   2040
  1.192   1994
  1.197   2138
  1.202   2061
 1.2071   2131
 1.2121   2170
 1.2171   2134
 1.2221   2086
 1.2271   2133
 1.2321   2121
 1.2371   2142
 1.2421   2155
 1.2471   2226
 1.2521   2225
 1.2571   2210
 1.2621   2206
 1.2671   2129
 1.2721   2105
 1.2771   2119
 1.2821   2125
 1.2871   2066
 1.2921   2077
 1.2971   2109
 1.3021   2008
 1.3071   2008
 1.3121   2100
 1.3171   1939
 1.3221   2037
 1.3271   1960
 1.3322   1870
 1.3372   2057
 1.3422   1929
 1.3472   1854
 1.3522   1861
 1.3572   1834
 1.3622   1899
 1.3672   1891
 1.3722   1937
 1.3772   1958
 1.3822   1990
 1.3872   2025
 1.3922   1976
 1.3972   2057
 1.4022   2090
 1.4072   2123
 1.4122   2322
 1.4172   2292
 1.4222   2482
 1.4272   2598
 1.4322   2609
 1.4372   2891
 1.4422   3061
 1.4472   3068
 1.4522   3409
 1.4573   3539
 1.4623   3818
 1.4673   3931
 1.4723   4031
 1.4773   4143
 1.4823   4223
 1.4873   4285
 1.4923   4270
 1.4973   4410
 1.5023   4285
 1.5073   4010
 1.5123   4019
 1.5173   3847
 1.5223   3712
 1.5273   3426
 1.5323   3499
 1.5373   3131
 1.5423   3109
 1.5473   2970
 1.5523   2850
 1.5573   2598
 1.5623   2645
 1.5673   2471
 1.5723   2464
 1.5773   2466
 1.5824   2243
 1.5874   2326
 1.5924   2237
 1.5974   2162
 1.6024   2124
 1.6074   2170
 1.6124   2200
 1.6174   2040
 1.6224   2114
 1.6274   2106
 1.6324   2231
 1.6374   2261
 1.6424   2295
 1.6474   2473
 1.6524   2658
 1.6574   2821
 1.6624   3144
 1.6674   3384
 1.6724   3860
 1.6774   4266
 1.6824   4744
 1.6874   5437
 1.6924   6057
 1.6974   6767
 1.7024   7605
 1.7075   7972
 1.7125   8827
 1.7175   9520
 1.7225  10050
 1.7275  10673
 1.7325  11033
 1.7375  11173
 1.7425  11093
 1.7475  11289
 1.7525  11099
 1.7575  10582
 1.7625  10191
 1.7675   9667
 1.7725   9269
 1.7775   8577
 1.7825   7970
 1.7875   7181
 1.7925   6584
 1.7975   6173
 1.8025   5605
 1.8075   5380
 1.8125   4842
 1.8175   4513
 1.8225   4336
 1.8275   4104
 1.8326   3926
 1.8376   3971
 1.8426   3890
 1.8476   3912
 1.8526   3971
 1.8576   4159
 1.8626   4163
 1.8676   4347
 1.8726   4825
 1.8776   5045
 1.8826   5494
 1.8876   5938
 1.8926   6464
 1.8976   6986
 1.9026   7749
 1.9076   8133
 1.9126   9067
 1.9176   9526
 1.9226  10150
 1.9276  10809
 1.9326  11136
 1.9376  11649
 1.9426  11955
 1.9476  11997
 1.9526  11918
 1.9577  11868
 1.9627  11787
 1.9677  11112
 1.9727  10457
 1.9777  10069
 1.9827   9208
 1.9877   8502
 1.9927   8072
 1.9977   7322
 2.0027   6829
 2.0077   6071
 2.0127   5415
 2.0177   5061
 2.0227   4584
 2.0277   4268
 2.0327   3942
 2.0377   3634
 2.0427   3491
 2.0477   3240
 2.0527   3048
 2.0577   3013
 2.0627   2766
 2.0677   2785
 2.0727   2662
 2.0777   2613
 2.0828   2656
 2.0878   2567
 2.0928   2425
 2.0978   2492
 2.1028   2421
 2.1078   2419
 2.1128   2475
 2.1178   2440
 2.1228   2427
 2.1278   2315
 2.1328   2372
 2.1378   2403
 2.1428   2435
 2.1478   2391
 2.1528   2342
 2.1578   2348
 2.1628   2409
 2.1678   2424
 2.1728   2453
 2.1778   2557
 2.1828   2457
 2.1878   2585
 2.1928   2580
 2.1978   2701
 2.2028   2822
 2.2079   3037
 2.2129   3055
 2.2179   3311
 2.2229   3507
 2.2279   3707
 2.2329   4049
 2.2379   4239
 2.2429   4787
 2.2479   5055
 2.2529   5393
 2.2579   5956
 2.2629   6351
 2.2679   6691
 2.2729   7253
 2.2779   7579
 2.2829   7913
 2.2879   8066
 2.2929   8461
 2.2979   8664
 2.3029   9044
 2.3079   8872
 2.3129   8575
 2.3179   8622
 2.3229   8398
 2.3279   8164
  2.333   7732
  2.338   7267
  2.343   6892
  2.348   6519
  2.353   5965
  2.358   5583
  2.363   5160
  2.368   4753
  2.373   4301
  2.378   3875
  2.383   3688
  2.388   3337
  2.393   3180
  2.398   3003
  2.403   2866
  2.408   2683
  2.413   2560
  2.418   2515
  2.423   2456
  2.428   2410
  2.433   2404
  2.438   2438
  2.443   2409
  2.448   2405
  2.453   2361
 2.4581   2384
 2.4631   2359
 2.4681   2384
 2.4731   2434
 2.4781   2293
 2.4831   2320
 2.4881   2375
 2.4931   2404
 2.4981   2263
 2.5031   2270
 2.5081   2239
 2.5131   2245
 2.5181   2198
 2.5231   2163
 2.5281   2134
 2.5331   2115
 2.5381   2068
 2.5431   2113
 2.5481   2132
 2.5531   2111
 2.5581   2093
 2.5631   2154
 2.5681   2008
 2.5731   2159
 2.5781   2059
 2.5832   2218
 2.5882   2136
 2.5932   2270
 2.5982   2246
 2.6032   2240
 2.6082   2269
 2.6132   2325
 2.6182   2248
 2.6232   2267
 2.6282   2243
 2.6332   2251
 2.6382   2340
 2.6432   2230
 2.6482   2343
 2.6532   2260
 2.6582   2184
 2.6632   2207
 2.6682   2230
 2.6732   2217
 2.6782   2248
 2.6832   2205
 2.6882   2201
 2.6932   2102
 2.6982   2155
 2.7032   2152
 2.7083   2142
 2.7133   2164
 2.7183   2259
 2.7233   2205
 2.7283   2209
 2.7333   2249
 2.7383   2176
 2.7433   2258
 2.7483   2315
 2.7533   2209
 2.7583   2294
 2.7633   2267
 2.7683   2269
 2.7733   2257
 2.7783   2283
 2.7833   2343
 2.7883   2315
 2.7933   2234
 2.7983   2215
 2.8033   2297
 2.8083   2203
 2.8133   2269
 2.8183   2179
 2.8233   2345
 2.8283   2264
 2.8334   2330
 2.8384   2270
 2.8434   2261
 2.8484   2184
 2.8534   2208
 2.8584   2200
 2.8634   2329
 2.8684   2278
 2.8734   2367
 2.8784   2294
 2.8834   2414
 2.8884   2364
 2.8934   2373
 2.8984   2514
 2.9034   2431
 2.9084   2486
 2.9134   2644
 2.9184   2631
 2.9234   2713
 2.9284   2731
 2.9334   2658
 2.9384   2782
 2.9434   2680
 2.9484   2785
 2.9534   2810
 2.9585   2827
 2.9635   2915
 2.9685   2876
 2.9735   2967
 2.9785   2848
 2.9835   2760
 2.9885   2801
 2.9935   2988
 2.9985   2882
 3.0035   2840
 3.0085   2843
 3.0135   2778
 3.0185   2687
 3.0235   2781
 3.0285   2674
 3.0335   2751
 3.0385   2640
 3.0435   2664
 3.0485   2636
 3.0535   2728
 3.0585   2756
 3.0635   2788
 3.0685   2671
 3.0735   2717
 3.0785   2669
 3.0836   2828
 3.0886   2729
 3.0936   2853
 3.0986   2833
 3.1036   2856
 3.1086   2970
 3.1136   2968
 3.1186   2911
 3.1236   2923
 3.1286   2948
 3.1336   3049
 3.1386   3077
 3.1436   3222
 3.1486   3137
 3.1536   3159
 3.1586   3257
 3.1636   3348
 3.1686   3418
 3.1736   3509
 3.1786   3561
 3.1836   3667
 3.1886   3811
 3.1936   4035
 3.1986   4215
 3.2036   4372
 3.2087   4553
 3.2137   5159
 3.2187   5639
 3.2237   6074
 3.2287   6472
 3.2337   7212
 3.2387   8020
 3.2437   8942
 3.2487   9777
 3.2537  10695
 3.2587  11924
 3.2637  12759
 3.2687  13977
 3.2737  15097
 3.2787  16247
 3.2837  17567
 3.2887  18606
 3.2937  19432
 3.2987  20312
 3.3037  20813
 3.3087  21375
 3.3137  21802
 3.3187  21953
 3.3237  21698
 3.3287  21320
 3.3338  20913
 3.3388  20067
 3.3438  19475
 3.3488  18251
 3.3538  17258
 3.3588  16322
 3.3638  14783
 3.3688  14019
 3.3738  12759
 3.3788  11603
 3.3838  10769
 3.3888   9728
 3.3938   8920
 3.3988   7968
 3.4038   7358
 3.4088   6742
 3.4138   6093
 3.4188   5732
 3.4238   5362
 3.4288   5060
 3.4338   5064
 3.4388   4925
 3.4438   4756
 3.4488   4679
 3.4538   4702
 3.4589   4739
 3.4639   4961
 3.4689   5180
 3.4739   5365
 3.4789   5462
 3.4839   5749
 3.4889   6041
 3.4939   6384
 3.4989   6893
 3.5039   7234
 3.5089   7858
 3.5139   8551
 3.5189   9341
 3.5239  10446
 3.5289  11624
 3.5339  13188
 3.5389  15486
 3.5439  17656
 3.5489  20343
 3.5539  24212
 3.5589  29053
 3.5639  34399
 3.5689  41341
 3.5739  49905
 3.5789  60402
  3.584  72588
  3.589  88047
  3.594 105773
  3.599 126606
  3.604 150635
  3.609 178273
  3.614 208557
  3.619 243672
  3.624 282072
  3.629 324536
  3.634 367358
  3.639 414315
  3.644 460285
  3.649 508554
  3.654 556328
  3.659 602555
  3.664 646064
  3.669 685851
  3.674 721585
  3.679 751031
  3.684 771921
  3.689 787295
  3.694 792557
  3.699 791371
  3.704 781280
 3.7091 764998
 3.7141 740165
 3.7191 710174
 3.7241 672743
 3.7291 631067
 3.7341 584798
 3.7391 538444
 3.7441 489436
 3.7491 440491
 3.7541 391271
 3.7591 347148
 3.7641 303226
 3.7691 261984
 3.7741 224688
 3.7791 190917
 3.7841 160555
 3.7891 133714
 3.7941 110999
 3.7991  90687
 3.8041  73952
 3.8091  60157
 3.8141  48506
 3.8191  38874
 3.8241  31434
 3.8291  25360
 3.8342  20718
 3.8392  17076
 3.8442  14329
 3.8492  12238
 3.8542  10713
 3.8592   9997
 3.8642   9400
 3.8692   9169
 3.8742   9250
 3.8792   9538
 3.8842  10160
 3.8892  10932
 3.8942  12173
 3.8992  13417
 3.9042  14963
 3.9092  16974
 3.9142  19003
 3.9192  21486
 3.9242  25037
 3.9292  28218
 3.9342  31838
 3.9392  36310
 3.9442  40544
 3.9492  46047
 3.9542  50902
 3.9593  56456
 3.9643  62073
 3.9693  68241
 3.9743  73774
 3.9793  79481
 3.9843  84950
 3.9893  89509
 3.9943  94176
 3.9993  98139
 4.0043 101345
 4.0093 103372
 4.0143 105278
 4.0193 104554
 4.0243 104700
 4.0293 103121
 4.0343 100092
 4.0393  97199
 4.0443  92846
 4.0493  87540
 4.0543  82636
 4.0593  76886
 4.0643  70901
 4.0693  65219
 4.0743  58342
 4.0793  52757
 4.0844  46837
 4.0894  40994
 4.0944  36296
 4.0994  31617
 4.1044  27101
 4.1094  23137
 4.1144  19587
 4.1194  16421
 4.1244  13767
 4.1294  11740
 4.1344   9707
 4.1394   8076
 4.1444   6702
 4.1494   5409
 4.1544   4640
 4.1594   3770
 4.1644   3159
 4.1694   2795
 4.1744   2303
 4.1794   2070
 4.1844   1843
 4.1894   1606
 4.1944   1514
 4.1994   1338
 4.2044   1268
 4.2095   1290
 4.2145   1188
 4.2195   1141
 4.2245   1098
 4.2295   1103
 4.2345   1041
 4.2395   1058
 4.2445   1086
 4.2495   1058
 4.2545   1061
 4.2595   1030
 4.2645   1050
 4.2695   1054
 4.2745   1017
 4.2795   1005
 4.2845   1039
 4.2895   1043
 4.2945   1030
 4.2995   1020
 4.3045   1055
 4.3095   1047
 4.3145   1067
 4.3195   1046
 4.3245   1103
 4.3295   1078
 4.3346   1104
 4.3396   1139
 4.3446   1212
 4.3496   1245
 4.3546   1312
 4.3596   1300
 4.3646   1382
 4.3696   1470
 4.3746   1761
 4.3796   1800
 4.3846   2041
 4.3896   2204
 4.3946   2492
 4.3996   2786
 4.4046   3142
 4.4096   3548
 4.4146   4002
 4.4196   4560
 4.4246   5138
 4.4296   5744
 4.4346   6484
 4.4396   7217
 4.4446   8017
 4.4496   8908
 4.4546   9801
 4.4597  10556
 4.4647  11508
 4.4697  12357
 4.4747  13201
 4.4797  13777
 4.4847  14869
 4.4897  15170
 4.4947  15871
 4.4997  15846
 4.5047  16366
 4.5097  16714
 4.5147  16270
 4.5197  16268
 4.5247  16186
 4.5297  15632
 4.5347  15052
 4.5397  14688
 4.5447  13980
 4.5497  12955
 4.5547  12224
 4.5597  11542
 4.5647  10762
 4.5697   9648
 4.5747   9033
 4.5797   8134
 4.5848   7537
 4.5898   6650
 4.5948   6118
 4.5998   5594
 4.6048   5010
 4.6098   4551
 4.6148   4231
 4.6198   3847
 4.6248   3545
 4.6298   3345
 4.6348   3154
 4.6398   2971
 4.6448   3017
 4.6498   2754
 4.6548   2591
 4.6598   2582
 4.6648   2407
 4.6698   2300
 4.6748   2230
 4.6798   2225
 4.6848   2107
 4.6898   2038
 4.6948   2034
 4.6998   1830
 4.7048   1809
 4.7099   1662
 4.7149   1648
 4.7199   1643
 4.7249   1583
 4.7299   1490
 4.7349   1425
 4.7399   1398
 4.7449   1378
 4.7499   1344
 4.7549   1344
 4.7599   1288
 4.7649   1378
 4.7699   1386
 4.7749   1420
 4.7799   1410
 4.7849   1474
 4.7899   1435
 4.7949   1626
 4.7999   1585
 4.8049   1708
 4.8099   1715
 4.8149   1810
 4.8199   1807
 4.8249   1907
 4.8299   2029
  4.835   2092
   4.84   2154
  4.845   2150
   4.85   2268
  4.855   2446
   4.86   2484
  4.865   2603
   4.87   2638
  4.875   2753
   4.88   2878
  4.885   3004
   4.89   3151
  4.895   3191
    4.9   3294
  4.905   3276
   4.91   3463
  4.915   3469
   4.92   3482
  4.925   3494
   4.93   3539
  4.935   3484
   4.94   3610
  4.945   3564
   4.95   3454
  4.955   3391
 4.9601   3222
 4.9651   3250
 4.9701   3120
 4.9751   2984
 4.9801   2763
 4.9851   2678
 4.9901   2483
 4.9951   2414
 5.0001   2254
 5.0051   2129
 5.0101   1962
 5.0151   1811
 5.0201   1778
 5.0251   1610
 5.0301   1553
 5.0351   1437
 5.0401   1285
 5.0451   1193
 5.0501   1163
 5.0551   1170
 5.0601   1027
 5.0651   1002
 5.0701   1047
 5.0751    951
 5.0801    938
 5.0852    932
 5.0902    901
 5.0952    916
 5.1002    897
 5.1052    911
 5.1102    947
 5.1152    901
 5.1202    880
 5.1252    974
 5.1302    913
 5.1352    938
 5.1402    964
 5.1452   1007
 5.1502   1003
 5.1552    999
 5.1602    941
 5.1652   1047
 5.1702    945
 5.1752    975
 5.1802   1006
 5.1852   1021
 5.1902   1053
 5.1952    996
 5.2002   1009
 5.2052   1015
 5.2103   1013
 5.2153   1043
 5.2203   1023
 5.2253   1029
 5.2303   1055
 5.2353   1025
 5.2403   1037
 5.2453   1138
 5.2503    993
 5.2553   1016
 5.2603   1052
 5.2653   1068
 5.2703   1089
 5.2753   1102
 5.2803   1035
 5.2853   1082
 5.2903   1124
 5.2953   1135
 5.3003   1108
 5.3053   1140
 5.3103   1129
 5.3153   1156
 5.3203   1206
 5.3253   1225
 5.3303   1234
 5.3354   1303
 5.3404   1274
 5.3454   1236
 5.3504   1277
 5.3554   1371
 5.3604   1376
 5.3654   1448
 5.3704   1535
 5.3754   1480
 5.3804   1537
 5.3854   1571
 5.3904   1565
 5.3954   1584
 5.4004   1526
 5.4054   1546
 5.4104   1602
 5.4154   1647
 5.4204   1606
 5.4254   1559
 5.4304   1560
 5.4354   1489
 5.4404   1555
 5.4454   1401
 5.4504   1520
 5.4554   1483
 5.4605   1405
 5.4655   1375
 5.4705   1372
 5.4755   1377
 5.4805   1331
 5.4855   1267
 5.4905   1223
 5.4955   1285
 5.5005   1225
 5.5055   1063
 5.5105   1138
 5.5155   1068
 5.5205   1079
 5.5255   1073
 5.5305   1067
 5.5355   1087
 5.5405   1040
 5.5455   1026
 5.5505    993
 5.5555   1011
 5.5605    993
 5.5655    998
 5.5705   1048
 5.5755    977
 5.5805   1030
 5.5856    948
 5.5906    979
 5.5956    949
 5.6006    960
 5.6056   1003
 5.6106    906
 5.6156    993
 5.6206    915
 5.6256    939
 5.6306    973
 5.6356    971
 5.6406    983
 5.6456   1034
 5.6506    930
 5.6556    959
