RÖNTEC GmbH Berlin, Germany
Quantax 1.2

Date: 3/19/2019 10:18:15 AM
Real time: 686727
Life time: 600000
Pulse density: 46115


Detector type: XFLASH
Window type: 
Detector thickness: 0.45
Si dead layer:0

Calibration, lin.: 5.004
Calibration, abs.: -484.3
Mn FWHM: 135.26
Fano factor: 0.11
Channels: 4096

Energy Counts
-0.4843      0
-0.4793      0
-0.4743      0
-0.4693      0
-0.4643      0
-0.4593      0
-0.4543      0
-0.4493      0
-0.4443      0
-0.4393      0
-0.4343      0
-0.4293      0
-0.4243      0
-0.4192      0
-0.4142      0
-0.4092      0
-0.4042      0
-0.3992      0
-0.3942      0
-0.3892      0
-0.3842      0
-0.3792      0
-0.3742      0
-0.3692      0
-0.3642      0
-0.3592      0
-0.3542      0
-0.3492      0
-0.3442      0
-0.3392      0
-0.3342      0
-0.3292      0
-0.3242      0
-0.3192      0
-0.3142      0
-0.3092      0
-0.3042      0
-0.2992      0
-0.2941      0
-0.2891      0
-0.2841      0
-0.2791      0
-0.2741      0
-0.2691      0
-0.2641      0
-0.2591      0
-0.2541      0
-0.2491      0
-0.2441      0
-0.2391      0
-0.2341      0
-0.2291      0
-0.2241      0
-0.2191      0
-0.2141      0
-0.2091      0
-0.2041      0
-0.1991      0
-0.1941      0
-0.1891      0
-0.1841      0
-0.1791      0
-0.1741      0
 -0.169      0
 -0.164      0
 -0.159      0
 -0.154      0
 -0.149      1
 -0.144      2
 -0.139      3
 -0.134      7
 -0.129     17
 -0.124     42
 -0.119     87
 -0.114    149
 -0.109    341
 -0.104    613
 -0.099   1066
 -0.094   1998
 -0.089   3432
 -0.084   6053
 -0.079  10051
 -0.074  16064
 -0.069  24704
 -0.064  37256
 -0.059  54171
 -0.054  77180
 -0.049 105623
-0.0439 140219
-0.0389 179717
-0.0339 223673
-0.0289 269661
-0.0239 314343
-0.0189 356807
-0.0139 389331
-0.0089 412610
-0.0039 423206
 0.0011 422841
 0.0061 407877
 0.0111 380735
 0.0161 345143
 0.0211 303517
 0.0261 256960
 0.0311 212030
 0.0361 169531
 0.0411 132103
 0.0461  98717
 0.0511  72208
 0.0561  50807
 0.0611  34944
 0.0661  23198
 0.0711  15013
 0.0761   9609
 0.0812   6007
 0.0862   3453
 0.0912   2047
 0.0962   1319
 0.1012    716
 0.1062    489
 0.1112    325
 0.1162    251
 0.1212    158
 0.1262    132
 0.1312    124
 0.1362    111
 0.1412    114
 0.1462    105
 0.1512    113
 0.1562     83
 0.1612     66
 0.1662     59
 0.1712     55
 0.1762     42
 0.1812     60
 0.1862     48
 0.1912     36
 0.1962     34
 0.2012     32
 0.2063     36
 0.2113     31
 0.2163     34
 0.2213     24
 0.2263     35
 0.2313     27
 0.2363     31
 0.2413     17
 0.2463     17
 0.2513     14
 0.2563     14
 0.2613     13
 0.2663      8
 0.2713      9
 0.2763     13
 0.2813     10
 0.2863      9
 0.2913      6
 0.2963      3
 0.3013      2
 0.3063      2
 0.3113      6
 0.3163      5
 0.3213      4
 0.3263     19
 0.3314     27
 0.3364    103
 0.3414    305
 0.3464    770
 0.3514   1339
 0.3564   1745
 0.3614   1878
 0.3664   1942
 0.3714   2016
 0.3764   1899
 0.3814   1913
 0.3864   1916
 0.3914   1888
 0.3964   1966
 0.4014   1853
 0.4064   1876
 0.4114   1886
 0.4164   1784
 0.4214   1788
 0.4264   1793
 0.4314   1748
 0.4364   1751
 0.4414   1679
 0.4464   1746
 0.4514   1644
 0.4565   1804
 0.4615   1664
 0.4665   1736
 0.4715   1695
 0.4765   1594
 0.4815   1666
 0.4865   1669
 0.4915   1690
 0.4965   1647
 0.5015   1553
 0.5065   1574
 0.5115   1572
 0.5165   1634
 0.5215   1644
 0.5265   1570
 0.5315   1596
 0.5365   1606
 0.5415   1580
 0.5465   1519
 0.5515   1507
 0.5565   1493
 0.5615   1484
 0.5665   1571
 0.5715   1518
 0.5765   1531
 0.5816   1494
 0.5866   1529
 0.5916   1469
 0.5966   1471
 0.6016   1508
 0.6066   1445
 0.6116   1447
 0.6166   1387
 0.6216   1508
 0.6266   1433
 0.6316   1426
 0.6366   1361
 0.6416   1415
 0.6466   1439
 0.6516   1444
 0.6566   1431
 0.6616   1432
 0.6666   1443
 0.6716   1366
 0.6766   1393
 0.6816   1368
 0.6866   1358
 0.6916   1270
 0.6966   1379
 0.7016   1424
 0.7067   1321
 0.7117   1350
 0.7167   1293
 0.7217   1315
 0.7267   1408
 0.7317   1354
 0.7367   1330
 0.7417   1364
 0.7467   1394
 0.7517   1342
 0.7567   1271
 0.7617   1325
 0.7667   1267
 0.7717   1353
 0.7767   1297
 0.7817   1274
 0.7867   1292
 0.7917   1343
 0.7967   1277
 0.8017   1242
 0.8067   1236
 0.8117   1258
 0.8167   1282
 0.8217   1281
 0.8267   1319
 0.8318   1281
 0.8368   1285
 0.8418   1190
 0.8468   1246
 0.8518   1306
 0.8568   1239
 0.8618   1194
 0.8668   1262
 0.8718   1265
 0.8768   1190
 0.8818   1216
 0.8868   1249
 0.8918   1291
 0.8968   1185
 0.9018   1285
 0.9068   1219
 0.9118   1221
 0.9168   1211
 0.9218   1232
 0.9268   1213
 0.9318   1221
 0.9368   1294
 0.9418   1267
 0.9468   1106
 0.9518   1157
 0.9569   1220
 0.9619   1193
 0.9669   1167
 0.9719   1234
 0.9769   1136
 0.9819   1170
 0.9869   1188
 0.9919   1161
 0.9969   1129
 1.0019   1172
 1.0069   1123
 1.0119   1117
 1.0169   1138
 1.0219   1162
 1.0269   1158
 1.0319   1108
 1.0369   1109
 1.0419   1141
 1.0469   1169
 1.0519   1108
 1.0569   1016
 1.0619   1099
 1.0669   1087
 1.0719   1072
 1.0769   1124
  1.082   1094
  1.087   1053
  1.092   1099
  1.097   1055
  1.102   1097
  1.107   1010
  1.112   1039
  1.117   1073
  1.122    976
  1.127   1026
  1.132   1043
  1.137    974
  1.142    992
  1.147    964
  1.152   1012
  1.157   1058
  1.162    991
  1.167    993
  1.172   1017
  1.177    926
  1.182    939
  1.187   1005
  1.192    972
  1.197    979
  1.202    963
 1.2071    959
 1.2121    924
 1.2171    919
 1.2221    976
 1.2271    922
 1.2321    922
 1.2371    914
 1.2421    897
 1.2471    895
 1.2521    890
 1.2571    895
 1.2621    879
 1.2671    909
 1.2721    920
 1.2771    942
 1.2821    849
 1.2871    929
 1.2921    832
 1.2971    910
 1.3021    871
 1.3071    843
 1.3121    813
 1.3171    807
 1.3221    854
 1.3271    853
 1.3322    781
 1.3372    834
 1.3422    842
 1.3472    836
 1.3522    895
 1.3572    844
 1.3622    841
 1.3672    851
 1.3722    814
 1.3772    854
 1.3822    842
 1.3872    840
 1.3922    827
 1.3972    859
 1.4022    862
 1.4072    891
 1.4122    847
 1.4172    833
 1.4222    921
 1.4272    932
 1.4322    920
 1.4372    977
 1.4422    951
 1.4472   1056
 1.4522   1104
 1.4573   1148
 1.4623   1130
 1.4673   1113
 1.4723   1170
 1.4773   1175
 1.4823   1148
 1.4873   1258
 1.4923   1166
 1.4973   1258
 1.5023   1235
 1.5073   1187
 1.5123   1175
 1.5173   1115
 1.5223   1135
 1.5273   1073
 1.5323   1040
 1.5373   1019
 1.5423   1024
 1.5473   1011
 1.5523   1009
 1.5573    965
 1.5623    912
 1.5673    911
 1.5723    922
 1.5773    881
 1.5824    887
 1.5874    864
 1.5924    894
 1.5974    855
 1.6024    863
 1.6074    870
 1.6124    872
 1.6174    811
 1.6224    810
 1.6274    861
 1.6324    905
 1.6374    942
 1.6424    924
 1.6474    963
 1.6524   1142
 1.6574   1269
 1.6624   1296
 1.6674   1579
 1.6724   1768
 1.6774   2080
 1.6824   2277
 1.6874   2654
 1.6924   2910
 1.6974   3156
 1.7024   3729
 1.7075   3978
 1.7125   4170
 1.7175   4825
 1.7225   5054
 1.7275   5341
 1.7325   5646
 1.7375   5637
 1.7425   5726
 1.7475   5592
 1.7525   5457
 1.7575   5252
 1.7625   5152
 1.7675   4753
 1.7725   4434
 1.7775   4145
 1.7825   3744
 1.7875   3471
 1.7925   3080
 1.7975   2782
 1.8025   2450
 1.8075   2256
 1.8125   2087
 1.8175   1914
 1.8225   1731
 1.8275   1637
 1.8326   1528
 1.8376   1515
 1.8426   1442
 1.8476   1437
 1.8526   1374
 1.8576   1384
 1.8626   1465
 1.8676   1492
 1.8726   1594
 1.8776   1774
 1.8826   1768
 1.8876   1987
 1.8926   2090
 1.8976   2211
 1.9026   2367
 1.9076   2663
 1.9126   2812
 1.9176   2924
 1.9226   3216
 1.9276   3381
 1.9326   3455
 1.9376   3595
 1.9426   3637
 1.9476   3666
 1.9526   3683
 1.9577   3630
 1.9627   3509
 1.9677   3452
 1.9727   3386
 1.9777   3038
 1.9827   2952
 1.9877   2710
 1.9927   2534
 1.9977   2323
 2.0027   2194
 2.0077   1996
 2.0127   1785
 2.0177   1638
 2.0227   1618
 2.0277   1355
 2.0327   1262
 2.0377   1235
 2.0427   1162
 2.0477   1058
 2.0527   1147
 2.0577   1077
 2.0627    940
 2.0677   1053
 2.0727    957
 2.0777    940
 2.0828    969
 2.0878    922
 2.0928    915
 2.0978    946
 2.1028    893
 2.1078    937
 2.1128    877
 2.1178    867
 2.1228    843
 2.1278    891
 2.1328    877
 2.1378    840
 2.1428    871
 2.1478    841
 2.1528    859
 2.1578    824
 2.1628    833
 2.1678    923
 2.1728    885
 2.1778    867
 2.1828    898
 2.1878    848
 2.1928    946
 2.1978    905
 2.2028    981
 2.2079   1078
 2.2129   1020
 2.2179   1100
 2.2229   1106
 2.2279   1187
 2.2329   1290
 2.2379   1377
 2.2429   1453
 2.2479   1475
 2.2529   1611
 2.2579   1693
 2.2629   1749
 2.2679   1802
 2.2729   1973
 2.2779   1979
 2.2829   2256
 2.2879   2111
 2.2929   2218
 2.2979   2277
 2.3029   2210
 2.3079   2291
 2.3129   2258
 2.3179   2304
 2.3229   2168
 2.3279   2108
  2.333   2045
  2.338   1952
  2.343   1834
  2.348   1742
  2.353   1612
  2.358   1503
  2.363   1382
  2.368   1362
  2.373   1292
  2.378   1135
  2.383   1100
  2.388   1073
  2.393    946
  2.398    881
  2.403    891
  2.408    907
  2.413    872
  2.418    900
  2.423    839
  2.428    776
  2.433    851
  2.438    830
  2.443    870
  2.448    860
  2.453    807
 2.4581    821
 2.4631    852
 2.4681    851
 2.4731    848
 2.4781    866
 2.4831    798
 2.4881    868
 2.4931    770
 2.4981    796
 2.5031    846
 2.5081    792
 2.5131    821
 2.5181    765
 2.5231    778
 2.5281    776
 2.5331    772
 2.5381    859
 2.5431    792
 2.5481    785
 2.5531    756
 2.5581    765
 2.5631    840
 2.5681    820
 2.5731    763
 2.5781    852
 2.5832    812
 2.5882    833
 2.5932    830
 2.5982    846
 2.6032    893
 2.6082    807
 2.6132    916
 2.6182    871
 2.6232    884
 2.6282    879
 2.6332    903
 2.6382    865
 2.6432    880
 2.6482    916
 2.6532    821
 2.6582    793
 2.6632    795
 2.6682    822
 2.6732    820
 2.6782    825
 2.6832    866
 2.6882    812
 2.6932    813
 2.6982    822
 2.7032    826
 2.7083    815
 2.7133    730
 2.7183    785
 2.7233    826
 2.7283    776
 2.7333    838
 2.7383    831
 2.7433    839
 2.7483    843
 2.7533    822
 2.7583    821
 2.7633    799
 2.7683    826
 2.7733    798
 2.7783    837
 2.7833    836
 2.7883    809
 2.7933    814
 2.7983    822
 2.8033    838
 2.8083    839
 2.8133    820
 2.8183    892
 2.8233    830
 2.8283    831
 2.8334    827
 2.8384    806
 2.8434    794
 2.8484    849
 2.8534    893
 2.8584    857
 2.8634    849
 2.8684    902
 2.8734    855
 2.8784    841
 2.8834    917
 2.8884    932
 2.8934    937
 2.8984    987
 2.9034    966
 2.9084   1021
 2.9134    981
 2.9184    990
 2.9234   1049
 2.9284   1144
 2.9334   1076
 2.9384   1164
 2.9434   1174
 2.9484   1116
 2.9534   1158
 2.9585   1132
 2.9635   1132
 2.9685   1170
 2.9735   1237
 2.9785   1164
 2.9835   1158
 2.9885   1060
 2.9935   1100
 2.9985   1093
 3.0035   1027
 3.0085   1039
 3.0135   1054
 3.0185    956
 3.0235    998
 3.0285    913
 3.0335    999
 3.0385   1010
 3.0435    979
 3.0485    972
 3.0535    914
 3.0585   1012
 3.0635    955
 3.0685    908
 3.0735    983
 3.0785    926
 3.0836    941
 3.0886    962
 3.0936    950
 3.0986    992
 3.1036    982
 3.1086    970
 3.1136   1005
 3.1186    959
 3.1236   1060
 3.1286   1067
 3.1336   1105
 3.1386   1018
 3.1436   1060
 3.1486   1024
 3.1536    988
 3.1586   1127
 3.1636   1143
 3.1686   1126
 3.1736   1212
 3.1786   1199
 3.1836   1223
 3.1886   1248
 3.1936   1284
 3.1986   1342
 3.2036   1382
 3.2087   1460
 3.2137   1623
 3.2187   1759
 3.2237   1984
 3.2287   2096
 3.2337   2264
 3.2387   2470
 3.2437   2712
 3.2487   2925
 3.2537   3228
 3.2587   3532
 3.2637   3886
 3.2687   4327
 3.2737   4636
 3.2787   4886
 3.2837   5166
 3.2887   5390
 3.2937   5750
 3.2987   6106
 3.3037   6272
 3.3087   6270
 3.3137   6545
 3.3187   6465
 3.3237   6430
 3.3287   6058
 3.3338   6182
 3.3388   5857
 3.3438   5693
 3.3488   5353
 3.3538   5097
 3.3588   4839
 3.3638   4258
 3.3688   4161
 3.3738   3779
 3.3788   3414
 3.3838   3070
 3.3888   2815
 3.3938   2677
 3.3988   2370
 3.4038   2161
 3.4088   2036
 3.4138   1862
 3.4188   1768
 3.4238   1663
 3.4288   1591
 3.4338   1596
 3.4388   1522
 3.4438   1454
 3.4488   1458
 3.4538   1487
 3.4589   1586
 3.4639   1523
 3.4689   1599
 3.4739   1669
 3.4789   1808
 3.4839   1796
 3.4889   1971
 3.4939   1937
 3.4989   2113
 3.5039   2315
 3.5089   2503
 3.5139   2749
 3.5189   2838
 3.5239   3194
 3.5289   3672
 3.5339   4050
 3.5389   4504
 3.5439   5444
 3.5489   6076
 3.5539   7266
 3.5589   8722
 3.5639  10016
 3.5689  12258
 3.5739  14709
 3.5789  18064
  3.584  21655
  3.589  25960
  3.594  31631
  3.599  37470
  3.604  44250
  3.609  52628
  3.614  61880
  3.619  71776
  3.624  83446
  3.629  95390
  3.634 109018
  3.639 122379
  3.644 135826
  3.649 150717
  3.654 164090
  3.659 178090
  3.664 190422
  3.669 202968
  3.674 212487
  3.679 221750
  3.684 226857
  3.689 232245
  3.694 232867
  3.699 232070
  3.704 230535
 3.7091 223889
 3.7141 217537
 3.7191 207106
 3.7241 197131
 3.7291 183935
 3.7341 171678
 3.7391 156853
 3.7441 142755
 3.7491 128347
 3.7541 113769
 3.7591 100724
 3.7641  88057
 3.7691  75913
 3.7741  65065
 3.7791  55264
 3.7841  46461
 3.7891  38533
 3.7941  31723
 3.7991  26068
 3.8041  21458
 3.8091  17200
 3.8141  13921
 3.8191  11175
 3.8241   8966
 3.8291   7252
 3.8342   5952
 3.8392   4937
 3.8442   4196
 3.8492   3523
 3.8542   3184
 3.8592   2995
 3.8642   2868
 3.8692   2739
 3.8742   2761
 3.8792   2890
 3.8842   3123
 3.8892   3494
 3.8942   3866
 3.8992   4280
 3.9042   4799
 3.9092   5397
 3.9142   5995
 3.9192   6828
 3.9242   7881
 3.9292   8794
 3.9342  10023
 3.9392  11489
 3.9442  13020
 3.9492  14402
 3.9542  16194
 3.9593  17694
 3.9643  19769
 3.9693  21351
 3.9743  23340
 3.9793  24961
 3.9843  26680
 3.9893  28358
 3.9943  29658
 3.9993  30914
 4.0043  31971
 4.0093  32509
 4.0143  32743
 4.0193  33019
 4.0243  32861
 4.0293  32277
 4.0343  31365
 4.0393  30461
 4.0443  29090
 4.0493  27194
 4.0543  25582
 4.0593  23766
 4.0643  22037
 4.0693  20436
 4.0743  18242
 4.0793  16489
 4.0844  14665
 4.0894  12677
 4.0944  11250
 4.0994   9703
 4.1044   8245
 4.1094   7060
 4.1144   5913
 4.1194   5299
 4.1244   4321
 4.1294   3689
 4.1344   2996
 4.1394   2462
 4.1444   2165
 4.1494   1691
 4.1544   1448
 4.1594   1220
 4.1644   1095
 4.1694    946
 4.1744    857
 4.1794    752
 4.1844    683
 4.1894    622
 4.1944    554
 4.1994    537
 4.2044    520
 4.2095    462
 4.2145    448
 4.2195    435
 4.2245    499
 4.2295    451
 4.2345    444
 4.2395    424
 4.2445    465
 4.2495    439
 4.2545    404
 4.2595    466
 4.2645    447
 4.2695    419
 4.2745    442
 4.2795    432
 4.2845    433
 4.2895    466
 4.2945    431
 4.2995    458
 4.3045    474
 4.3095    474
 4.3145    432
 4.3195    444
 4.3245    454
 4.3295    460
 4.3346    497
 4.3396    510
 4.3446    514
 4.3496    583
 4.3546    548
 4.3596    592
 4.3646    598
 4.3696    609
 4.3746    667
 4.3796    708
 4.3846    820
 4.3896    914
 4.3946    983
 4.3996   1163
 4.4046   1232
 4.4096   1375
 4.4146   1623
 4.4196   1812
 4.4246   2035
 4.4296   2221
 4.4346   2454
 4.4396   2733
 4.4446   3111
 4.4496   3430
 4.4546   3696
 4.4597   3990
 4.4647   4431
 4.4697   4555
 4.4747   5075
 4.4797   5182
 4.4847   5492
 4.4897   5637
 4.4947   5673
 4.4997   5849
 4.5047   6166
 4.5097   6187
 4.5147   6090
 4.5197   6039
 4.5247   5954
 4.5297   5737
 4.5347   5533
 4.5397   5392
 4.5447   5184
 4.5497   4879
 4.5547   4478
 4.5597   4312
 4.5647   3890
 4.5697   3613
 4.5747   3469
 4.5797   3160
 4.5848   2787
 4.5898   2531
 4.5948   2429
 4.5998   2112
 4.6048   1939
 4.6098   1852
 4.6148   1726
 4.6198   1566
 4.6248   1553
 4.6298   1482
 4.6348   1375
 4.6398   1364
 4.6448   1251
 4.6498   1205
 4.6548   1168
 4.6598   1141
 4.6648   1084
 4.6698   1083
 4.6748   1055
 4.6798   1070
 4.6848   1039
 4.6898    930
 4.6948    905
 4.6998    958
 4.7048    861
 4.7099    801
 4.7149    820
 4.7199    782
 4.7249    711
 4.7299    715
 4.7349    698
 4.7399    687
 4.7449    652
 4.7499    591
 4.7549    646
 4.7599    634
 4.7649    659
 4.7699    658
 4.7749    677
 4.7799    636
 4.7849    704
 4.7899    686
 4.7949    729
 4.7999    712
 4.8049    759
 4.8099    797
 4.8149    794
 4.8199    844
 4.8249    883
 4.8299    908
  4.835    906
   4.84    953
  4.845    971
   4.85   1071
  4.855   1024
   4.86   1084
  4.865   1113
   4.87   1173
  4.875   1212
   4.88   1242
  4.885   1275
   4.89   1318
  4.895   1326
    4.9   1390
  4.905   1389
   4.91   1484
  4.915   1513
   4.92   1441
  4.925   1504
   4.93   1511
  4.935   1435
   4.94   1463
  4.945   1433
   4.95   1460
  4.955   1404
 4.9601   1395
 4.9651   1289
 4.9701   1266
 4.9751   1294
 4.9801   1180
 4.9851   1110
 4.9901   1073
 4.9951    996
 5.0001    961
 5.0051    869
 5.0101    818
 5.0151    786
 5.0201    771
 5.0251    721
 5.0301    689
 5.0351    600
 5.0401    603
 5.0451    546
 5.0501    547
 5.0551    527
 5.0601    498
 5.0651    472
 5.0701    482
 5.0751    463
 5.0801    442
 5.0852    484
 5.0902    447
 5.0952    485
 5.1002    452
 5.1052    458
 5.1102    454
 5.1152    411
 5.1202    456
 5.1252    442
 5.1302    441
 5.1352    434
 5.1402    492
 5.1452    455
 5.1502    452
 5.1552    450
 5.1602    479
 5.1652    484
 5.1702    497
 5.1752    436
 5.1802    453
 5.1852    462
 5.1902    548
 5.1952    489
 5.2002    508
 5.2052    476
 5.2103    492
 5.2153    472
 5.2203    540
 5.2253    506
 5.2303    514
 5.2353    509
 5.2403    496
 5.2453    497
 5.2503    475
 5.2553    471
 5.2603    510
 5.2653    532
 5.2703    522
 5.2753    522
 5.2803    520
 5.2853    532
 5.2903    482
 5.2953    565
 5.3003    530
 5.3053    575
 5.3103    541
 5.3153    580
 5.3203    610
 5.3253    564
 5.3303    540
 5.3354    625
 5.3404    592
 5.3454    632
 5.3504    608
 5.3554    660
 5.3604    650
 5.3654    666
 5.3704    692
 5.3754    637
 5.3804    695
 5.3854    691
 5.3904    675
 5.3954    742
 5.4004    736
 5.4054    692
 5.4104    736
 5.4154    734
 5.4204    686
 5.4254    729
 5.4304    748
 5.4354    675
 5.4404    723
 5.4454    678
 5.4504    661
 5.4554    612
 5.4605    681
 5.4655    670
 5.4705    618
 5.4755    602
 5.4805    608
 5.4855    592
 5.4905    550
 5.4955    544
 5.5005    525
 5.5055    489
 5.5105    526
 5.5155    502
 5.5205    493
 5.5255    519
 5.5305    460
 5.5355    481
 5.5405    483
 5.5455    465
 5.5505    500
 5.5555    494
 5.5605    478
 5.5655    451
 5.5705    469
 5.5755    457
 5.5805    484
 5.5856    449
 5.5906    497
 5.5956    463
 5.6006    450
 5.6056    462
 5.6106    473
 5.6156    472
 5.6206    453
 5.6256    445
 5.6306    504
 5.6356    462
 5.6406    487
 5.6456    450
 5.6506    404
 5.6556    439
