RÖNTEC GmbH Berlin, Germany
Quantax 1.2

Date: 3/19/2019 10:07:08 AM
Real time: 640740
Life time: 600000
Pulse density: 22299


Detector type: XFLASH
Window type: 
Detector thickness: 0.45
Si dead layer:0

Calibration, lin.: 5.004
Calibration, abs.: -484.3
Mn FWHM: 135.26
Fano factor: 0.11
Channels: 4096

Energy Counts
-0.4843      0
-0.4793      0
-0.4743      0
-0.4693      0
-0.4643      0
-0.4593      0
-0.4543      0
-0.4493      0
-0.4443      0
-0.4393      0
-0.4343      0
-0.4293      0
-0.4243      0
-0.4192      0
-0.4142      0
-0.4092      0
-0.4042      0
-0.3992      0
-0.3942      0
-0.3892      0
-0.3842      0
-0.3792      0
-0.3742      0
-0.3692      0
-0.3642      0
-0.3592      0
-0.3542      0
-0.3492      0
-0.3442      0
-0.3392      0
-0.3342      0
-0.3292      0
-0.3242      0
-0.3192      0
-0.3142      0
-0.3092      0
-0.3042      0
-0.2992      0
-0.2941      0
-0.2891      0
-0.2841      0
-0.2791      0
-0.2741      0
-0.2691      0
-0.2641      0
-0.2591      0
-0.2541      0
-0.2491      0
-0.2441      0
-0.2391      0
-0.2341      0
-0.2291      0
-0.2241      0
-0.2191      0
-0.2141      0
-0.2091      0
-0.2041      0
-0.1991      0
-0.1941      0
-0.1891      0
-0.1841      0
-0.1791      0
-0.1741      0
 -0.169      0
 -0.164      0
 -0.159      0
 -0.154      0
 -0.149      0
 -0.144      5
 -0.139      4
 -0.134     10
 -0.129     16
 -0.124     35
 -0.119     68
 -0.114    150
 -0.109    281
 -0.104    567
 -0.099   1074
 -0.094   1964
 -0.089   3379
 -0.084   5902
 -0.079   9524
 -0.074  15758
 -0.069  24210
 -0.064  36616
 -0.059  53629
 -0.054  76171
 -0.049 104011
-0.0439 138649
-0.0389 177781
-0.0339 222018
-0.0289 267868
-0.0239 313696
-0.0189 355784
-0.0139 389385
-0.0089 413986
-0.0039 426373
 0.0011 423657
 0.0061 409449
 0.0111 385124
 0.0161 347948
 0.0211 304819
 0.0261 259116
 0.0311 213311
 0.0361 170036
 0.0411 131769
 0.0461  98695
 0.0511  71358
 0.0561  50648
 0.0611  34487
 0.0661  22680
 0.0711  14766
 0.0761   9170
 0.0812   5762
 0.0862   3249
 0.0912   1932
 0.0962   1043
 0.1012    636
 0.1062    368
 0.1112    211
 0.1162    131
 0.1212     85
 0.1262     72
 0.1312     41
 0.1362     56
 0.1412     34
 0.1462     41
 0.1512     30
 0.1562     25
 0.1612     19
 0.1662     26
 0.1712     17
 0.1762     22
 0.1812     30
 0.1862     23
 0.1912     15
 0.1962     16
 0.2012     17
 0.2063     13
 0.2113     14
 0.2163     13
 0.2213     13
 0.2263      5
 0.2313     16
 0.2363     15
 0.2413     12
 0.2463      7
 0.2513     10
 0.2563      4
 0.2613      8
 0.2663      2
 0.2713      6
 0.2763      3
 0.2813      3
 0.2863      1
 0.2913      1
 0.2963      2
 0.3013      2
 0.3063      1
 0.3113      1
 0.3163      0
 0.3213      2
 0.3263      7
 0.3314     14
 0.3364     87
 0.3414    258
 0.3464    487
 0.3514    776
 0.3564    973
 0.3614   1029
 0.3664   1073
 0.3714    979
 0.3764    999
 0.3814   1027
 0.3864    937
 0.3914   1024
 0.3964    949
 0.4014    944
 0.4064    886
 0.4114    931
 0.4164    964
 0.4214    949
 0.4264    914
 0.4314    889
 0.4364    958
 0.4414    897
 0.4464    942
 0.4514    928
 0.4565    880
 0.4615    882
 0.4665    904
 0.4715    873
 0.4765    885
 0.4815    847
 0.4865    828
 0.4915    847
 0.4965    850
 0.5015    907
 0.5065    867
 0.5115    872
 0.5165    817
 0.5215    797
 0.5265    881
 0.5315    824
 0.5365    844
 0.5415    867
 0.5465    767
 0.5515    806
 0.5565    818
 0.5615    766
 0.5665    829
 0.5715    816
 0.5765    816
 0.5816    796
 0.5866    814
 0.5916    784
 0.5966    782
 0.6016    770
 0.6066    818
 0.6116    771
 0.6166    745
 0.6216    763
 0.6266    735
 0.6316    760
 0.6366    751
 0.6416    745
 0.6466    723
 0.6516    751
 0.6566    756
 0.6616    755
 0.6666    742
 0.6716    736
 0.6766    713
 0.6816    728
 0.6866    725
 0.6916    703
 0.6966    747
 0.7016    739
 0.7067    755
 0.7117    732
 0.7167    741
 0.7217    736
 0.7267    726
 0.7317    662
 0.7367    699
 0.7417    742
 0.7467    711
 0.7517    726
 0.7567    726
 0.7617    702
 0.7667    728
 0.7717    704
 0.7767    679
 0.7817    725
 0.7867    716
 0.7917    655
 0.7967    699
 0.8017    696
 0.8067    643
 0.8117    675
 0.8167    669
 0.8217    653
 0.8267    673
 0.8318    690
 0.8368    672
 0.8418    665
 0.8468    707
 0.8518    700
 0.8568    651
 0.8618    645
 0.8668    720
 0.8718    659
 0.8768    675
 0.8818    689
 0.8868    612
 0.8918    690
 0.8968    652
 0.9018    655
 0.9068    636
 0.9118    647
 0.9168    684
 0.9218    652
 0.9268    596
 0.9318    608
 0.9368    697
 0.9418    598
 0.9468    632
 0.9518    640
 0.9569    625
 0.9619    617
 0.9669    638
 0.9719    627
 0.9769    594
 0.9819    627
 0.9869    643
 0.9919    612
 0.9969    603
 1.0019    579
 1.0069    637
 1.0119    573
 1.0169    623
 1.0219    637
 1.0269    525
 1.0319    589
 1.0369    584
 1.0419    585
 1.0469    572
 1.0519    579
 1.0569    580
 1.0619    545
 1.0669    595
 1.0719    545
 1.0769    541
  1.082    553
  1.087    565
  1.092    517
  1.097    514
  1.102    521
  1.107    559
  1.112    491
  1.117    515
  1.122    516
  1.127    530
  1.132    504
  1.137    508
  1.142    479
  1.147    508
  1.152    484
  1.157    502
  1.162    480
  1.167    463
  1.172    488
  1.177    495
  1.182    471
  1.187    500
  1.192    462
  1.197    445
  1.202    447
 1.2071    483
 1.2121    465
 1.2171    434
 1.2221    487
 1.2271    470
 1.2321    452
 1.2371    503
 1.2421    475
 1.2471    422
 1.2521    452
 1.2571    437
 1.2621    443
 1.2671    455
 1.2721    427
 1.2771    449
 1.2821    431
 1.2871    427
 1.2921    428
 1.2971    400
 1.3021    445
 1.3071    411
 1.3121    435
 1.3171    469
 1.3221    391
 1.3271    419
 1.3322    383
 1.3372    395
 1.3422    411
 1.3472    390
 1.3522    408
 1.3572    367
 1.3622    404
 1.3672    417
 1.3722    397
 1.3772    429
 1.3822    407
 1.3872    382
 1.3922    376
 1.3972    387
 1.4022    412
 1.4072    422
 1.4122    423
 1.4172    394
 1.4222    424
 1.4272    433
 1.4322    416
 1.4372    462
 1.4422    463
 1.4472    415
 1.4522    449
 1.4573    449
 1.4623    462
 1.4673    514
 1.4723    453
 1.4773    457
 1.4823    477
 1.4873    477
 1.4923    449
 1.4973    440
 1.5023    449
 1.5073    490
 1.5123    461
 1.5173    482
 1.5223    464
 1.5273    436
 1.5323    451
 1.5373    427
 1.5423    423
 1.5473    444
 1.5523    417
 1.5573    427
 1.5623    434
 1.5673    405
 1.5723    424
 1.5773    377
 1.5824    439
 1.5874    402
 1.5924    410
 1.5974    395
 1.6024    399
 1.6074    387
 1.6124    359
 1.6174    391
 1.6224    410
 1.6274    400
 1.6324    464
 1.6374    463
 1.6424    488
 1.6474    551
 1.6524    594
 1.6574    665
 1.6624    738
 1.6674    855
 1.6724    990
 1.6774   1175
 1.6824   1380
 1.6874   1541
 1.6924   1746
 1.6974   2002
 1.7024   2219
 1.7075   2428
 1.7125   2623
 1.7175   2857
 1.7225   3105
 1.7275   3175
 1.7325   3298
 1.7375   3388
 1.7425   3358
 1.7475   3307
 1.7525   3230
 1.7575   3050
 1.7625   3005
 1.7675   2793
 1.7725   2499
 1.7775   2370
 1.7825   2201
 1.7875   1960
 1.7925   1738
 1.7975   1513
 1.8025   1410
 1.8075   1250
 1.8125   1136
 1.8175    988
 1.8225    869
 1.8275    798
 1.8326    746
 1.8376    663
 1.8426    678
 1.8476    648
 1.8526    649
 1.8576    648
 1.8626    616
 1.8676    603
 1.8726    631
 1.8776    657
 1.8826    711
 1.8876    752
 1.8926    756
 1.8976    858
 1.9026    877
 1.9076    949
 1.9126    974
 1.9176   1017
 1.9226   1087
 1.9276   1095
 1.9326   1182
 1.9376   1260
 1.9426   1278
 1.9476   1234
 1.9526   1205
 1.9577   1249
 1.9627   1193
 1.9677   1201
 1.9727   1084
 1.9777   1106
 1.9827   1030
 1.9877    943
 1.9927    907
 1.9977    840
 2.0027    789
 2.0077    760
 2.0127    673
 2.0177    625
 2.0227    590
 2.0277    528
 2.0327    509
 2.0377    500
 2.0427    423
 2.0477    442
 2.0527    492
 2.0577    430
 2.0627    420
 2.0677    392
 2.0727    397
 2.0777    403
 2.0828    384
 2.0878    360
 2.0928    390
 2.0978    391
 2.1028    390
 2.1078    421
 2.1128    358
 2.1178    403
 2.1228    381
 2.1278    358
 2.1328    415
 2.1378    371
 2.1428    357
 2.1478    367
 2.1528    364
 2.1578    391
 2.1628    335
 2.1678    367
 2.1728    372
 2.1778    365
 2.1828    384
 2.1878    400
 2.1928    374
 2.1978    388
 2.2028    398
 2.2079    386
 2.2129    413
 2.2179    425
 2.2229    424
 2.2279    414
 2.2329    445
 2.2379    479
 2.2429    481
 2.2479    507
 2.2529    527
 2.2579    535
 2.2629    636
 2.2679    564
 2.2729    636
 2.2779    648
 2.2829    649
 2.2879    654
 2.2929    651
 2.2979    648
 2.3029    715
 2.3079    676
 2.3129    699
 2.3179    674
 2.3229    671
 2.3279    626
  2.333    623
  2.338    590
  2.343    552
  2.348    564
  2.353    500
  2.358    503
  2.363    472
  2.368    452
  2.373    408
  2.378    409
  2.383    405
  2.388    379
  2.393    344
  2.398    353
  2.403    352
  2.408    349
  2.413    327
  2.418    336
  2.423    342
  2.428    345
  2.433    328
  2.438    339
  2.443    350
  2.448    321
  2.453    324
 2.4581    370
 2.4631    344
 2.4681    366
 2.4731    316
 2.4781    328
 2.4831    347
 2.4881    343
 2.4931    342
 2.4981    347
 2.5031    343
 2.5081    340
 2.5131    335
 2.5181    318
 2.5231    362
 2.5281    327
 2.5331    344
 2.5381    370
 2.5431    367
 2.5481    354
 2.5531    376
 2.5581    381
 2.5631    337
 2.5681    391
 2.5731    423
 2.5781    472
 2.5832    427
 2.5882    449
 2.5932    467
 2.5982    460
 2.6032    484
 2.6082    492
 2.6132    490
 2.6182    465
 2.6232    474
 2.6282    495
 2.6332    474
 2.6382    466
 2.6432    424
 2.6482    464
 2.6532    473
 2.6582    477
 2.6632    480
 2.6682    440
 2.6732    419
 2.6782    430
 2.6832    419
 2.6882    379
 2.6932    412
 2.6982    394
 2.7032    381
 2.7083    390
 2.7133    353
 2.7183    355
 2.7233    347
 2.7283    376
 2.7333    325
 2.7383    326
 2.7433    356
 2.7483    363
 2.7533    342
 2.7583    379
 2.7633    372
 2.7683    314
 2.7733    374
 2.7783    343
 2.7833    311
 2.7883    369
 2.7933    338
 2.7983    354
 2.8033    354
 2.8083    349
 2.8133    339
 2.8183    370
 2.8233    369
 2.8283    342
 2.8334    364
 2.8384    334
 2.8434    333
 2.8484    368
 2.8534    382
 2.8584    397
 2.8634    385
 2.8684    400
 2.8734    398
 2.8784    388
 2.8834    436
 2.8884    465
 2.8934    475
 2.8984    502
 2.9034    484
 2.9084    544
 2.9134    523
 2.9184    568
 2.9234    608
 2.9284    626
 2.9334    614
 2.9384    615
 2.9434    696
 2.9484    705
 2.9534    710
 2.9585    672
 2.9635    620
 2.9685    661
 2.9735    671
 2.9785    647
 2.9835    639
 2.9885    644
 2.9935    625
 2.9985    619
 3.0035    647
 3.0085    575
 3.0135    521
 3.0185    491
 3.0235    475
 3.0285    463
 3.0335    481
 3.0385    428
 3.0435    409
 3.0485    415
 3.0535    429
 3.0585    397
 3.0635    381
 3.0685    351
 3.0735    417
 3.0785    340
 3.0836    389
 3.0886    409
 3.0936    356
 3.0986    365
 3.1036    404
 3.1086    386
 3.1136    389
 3.1186    389
 3.1236    393
 3.1286    427
 3.1336    413
 3.1386    425
 3.1436    446
 3.1486    452
 3.1536    447
 3.1586    441
 3.1636    443
 3.1686    473
 3.1736    456
 3.1786    492
 3.1836    477
 3.1886    541
 3.1936    549
 3.1986    558
 3.2036    620
 3.2087    617
 3.2137    698
 3.2187    723
 3.2237    823
 3.2287    900
 3.2337    970
 3.2387    983
 3.2437   1194
 3.2487   1298
 3.2537   1516
 3.2587   1602
 3.2637   1759
 3.2687   1924
 3.2737   2038
 3.2787   2160
 3.2837   2318
 3.2887   2516
 3.2937   2600
 3.2987   2688
 3.3037   2773
 3.3087   2831
 3.3137   2997
 3.3187   3014
 3.3237   2945
 3.3287   2816
 3.3338   2762
 3.3388   2608
 3.3438   2571
 3.3488   2446
 3.3538   2231
 3.3588   2063
 3.3638   1971
 3.3688   1803
 3.3738   1695
 3.3788   1449
 3.3838   1330
 3.3888   1203
 3.3938   1098
 3.3988   1021
 3.4038    967
 3.4088    845
 3.4138    790
 3.4188    679
 3.4238    666
 3.4288    648
 3.4338    618
 3.4388    599
 3.4438    584
 3.4488    604
 3.4538    579
 3.4589    579
 3.4639    584
 3.4689    598
 3.4739    624
 3.4789    615
 3.4839    661
 3.4889    666
 3.4939    761
 3.4989    790
 3.5039    813
 3.5089    917
 3.5139    934
 3.5189   1049
 3.5239   1148
 3.5289   1268
 3.5339   1460
 3.5389   1599
 3.5439   1923
 3.5489   2127
 3.5539   2606
 3.5589   2906
 3.5639   3661
 3.5689   4161
 3.5739   4972
 3.5789   5994
  3.584   7143
  3.589   8778
  3.594  10283
  3.599  12474
  3.604  14426
  3.609  17256
  3.614  20208
  3.619  23822
  3.624  27319
  3.629  31496
  3.634  35554
  3.639  39845
  3.644  44497
  3.649  49209
  3.654  53895
  3.659  58405
  3.664  62032
  3.669  65931
  3.674  68866
  3.679  71572
  3.684  73365
  3.689  74691
  3.694  75902
  3.699  75671
  3.704  74187
 3.7091  72087
 3.7141  70152
 3.7191  66634
 3.7241  63521
 3.7291  59246
 3.7341  55029
 3.7391  50525
 3.7441  45697
 3.7491  40800
 3.7541  36532
 3.7591  32259
 3.7641  28229
 3.7691  24382
 3.7741  20547
 3.7791  17791
 3.7841  14789
 3.7891  12072
 3.7941  10282
 3.7991   8321
 3.8041   6833
 3.8091   5587
 3.8141   4326
 3.8191   3557
 3.8241   2834
 3.8291   2307
 3.8342   1915
 3.8392   1586
 3.8442   1395
 3.8492   1210
 3.8542   1110
 3.8592   1024
 3.8642    990
 3.8692   1036
 3.8742   1001
 3.8792    987
 3.8842   1116
 3.8892   1262
 3.8942   1350
 3.8992   1562
 3.9042   1710
 3.9092   1942
 3.9142   2217
 3.9192   2564
 3.9242   2790
 3.9292   3255
 3.9342   3536
 3.9392   4105
 3.9442   4648
 3.9492   5296
 3.9542   5806
 3.9593   6418
 3.9643   7262
 3.9693   7747
 3.9743   8509
 3.9793   9086
 3.9843   9572
 3.9893  10171
 3.9943  10848
 3.9993  11080
 4.0043  11423
 4.0093  11769
 4.0143  11689
 4.0193  11896
 4.0243  11833
 4.0293  11524
 4.0343  11321
 4.0393  11042
 4.0443  10238
 4.0493   9931
 4.0543   9166
 4.0593   8586
 4.0643   7880
 4.0693   7253
 4.0743   6536
 4.0793   5862
 4.0844   5073
 4.0894   4499
 4.0944   3904
 4.0994   3368
 4.1044   2837
 4.1094   2520
 4.1144   2147
 4.1194   1869
 4.1244   1545
 4.1294   1355
 4.1344   1100
 4.1394    805
 4.1444    745
 4.1494    614
 4.1544    545
 4.1594    493
 4.1644    419
 4.1694    378
 4.1744    328
 4.1794    293
 4.1844    288
 4.1894    284
 4.1944    261
 4.1994    273
 4.2044    241
 4.2095    205
 4.2145    232
 4.2195    225
 4.2245    218
 4.2295    194
 4.2345    205
 4.2395    233
 4.2445    219
 4.2495    236
 4.2545    207
 4.2595    210
 4.2645    214
 4.2695    243
 4.2745    225
 4.2795    197
 4.2845    218
 4.2895    245
 4.2945    213
 4.2995    211
 4.3045    227
 4.3095    216
 4.3145    228
 4.3195    222
 4.3245    232
 4.3295    234
 4.3346    241
 4.3396    220
 4.3446    252
 4.3496    260
 4.3546    260
 4.3596    284
 4.3646    298
 4.3696    315
 4.3746    341
 4.3796    357
 4.3846    360
 4.3896    431
 4.3946    470
 4.3996    519
 4.4046    570
 4.4096    628
 4.4146    791
 4.4196    801
 4.4246    909
 4.4296    979
 4.4346   1177
 4.4396   1207
 4.4446   1402
 4.4496   1527
 4.4546   1650
 4.4597   1870
 4.4647   1964
 4.4697   2057
 4.4747   2234
 4.4797   2387
 4.4847   2416
 4.4897   2533
 4.4947   2649
 4.4997   2629
 4.5047   2696
 4.5097   2711
 4.5147   2665
 4.5197   2675
 4.5247   2676
 4.5297   2558
 4.5347   2480
 4.5397   2393
 4.5447   2203
 4.5497   2177
 4.5547   2003
 4.5597   1819
 4.5647   1721
 4.5697   1607
 4.5747   1521
 4.5797   1436
 4.5848   1273
 4.5898   1120
 4.5948   1104
 4.5998    992
 4.6048    906
 4.6098    903
 4.6148    811
 4.6198    804
 4.6248    727
 4.6298    681
 4.6348    681
 4.6398    665
 4.6448    651
 4.6498    639
 4.6548    594
 4.6598    601
 4.6648    591
 4.6698    587
 4.6748    581
 4.6798    555
 4.6848    560
 4.6898    475
 4.6948    479
 4.6998    452
 4.7048    447
 4.7099    422
 4.7149    372
 4.7199    377
 4.7249    365
 4.7299    370
 4.7349    354
 4.7399    348
 4.7449    326
 4.7499    281
 4.7549    311
 4.7599    324
 4.7649    326
 4.7699    324
 4.7749    333
 4.7799    316
 4.7849    257
 4.7899    336
 4.7949    336
 4.7999    332
 4.8049    321
 4.8099    372
 4.8149    360
 4.8199    341
 4.8249    372
 4.8299    389
  4.835    432
   4.84    438
  4.845    425
   4.85    465
  4.855    464
   4.86    509
  4.865    526
   4.87    528
  4.875    545
   4.88    577
  4.885    604
   4.89    584
  4.895    635
    4.9    631
  4.905    669
   4.91    698
  4.915    705
   4.92    679
  4.925    693
   4.93    729
  4.935    671
   4.94    675
  4.945    618
   4.95    686
  4.955    617
 4.9601    704
 4.9651    608
 4.9701    554
 4.9751    587
 4.9801    537
 4.9851    573
 4.9901    499
 4.9951    475
 5.0001    421
 5.0051    391
 5.0101    420
 5.0151    393
 5.0201    401
 5.0251    321
 5.0301    322
 5.0351    303
 5.0401    297
 5.0451    279
 5.0501    258
 5.0551    258
 5.0601    260
 5.0651    262
 5.0701    230
 5.0751    242
 5.0801    267
 5.0852    211
 5.0902    224
 5.0952    228
 5.1002    244
 5.1052    230
 5.1102    233
 5.1152    200
 5.1202    229
 5.1252    220
 5.1302    244
 5.1352    250
 5.1402    228
 5.1452    255
 5.1502    267
 5.1552    235
 5.1602    237
 5.1652    241
 5.1702    253
 5.1752    230
 5.1802    215
 5.1852    230
 5.1902    239
 5.1952    229
 5.2002    214
 5.2052    232
 5.2103    236
 5.2153    232
 5.2203    246
 5.2253    252
 5.2303    228
 5.2353    251
 5.2403    256
 5.2453    278
 5.2503    238
 5.2553    215
 5.2603    248
 5.2653    256
 5.2703    252
 5.2753    258
 5.2803    271
 5.2853    242
 5.2903    278
 5.2953    268
 5.3003    247
 5.3053    271
 5.3103    293
 5.3153    289
 5.3203    285
 5.3253    303
 5.3303    298
 5.3354    278
 5.3404    276
 5.3454    318
 5.3504    321
 5.3554    300
 5.3604    310
 5.3654    290
 5.3704    335
 5.3754    341
 5.3804    356
 5.3854    326
 5.3904    325
 5.3954    359
 5.4004    333
 5.4054    372
 5.4104    374
 5.4154    369
 5.4204    335
 5.4254    324
 5.4304    350
 5.4354    323
 5.4404    343
 5.4454    331
 5.4504    357
 5.4554    330
 5.4605    301
 5.4655    341
 5.4705    285
 5.4755    319
 5.4805    306
 5.4855    303
 5.4905    305
 5.4955    296
 5.5005    287
 5.5055    269
 5.5105    279
 5.5155    263
 5.5205    246
 5.5255    260
 5.5305    267
 5.5355    256
 5.5405    210
 5.5455    233
 5.5505    228
 5.5555    229
 5.5605    233
 5.5655    245
 5.5705    216
 5.5755    253
 5.5805    230
 5.5856    218
 5.5906    245
 5.5956    213
 5.6006    248
 5.6056    239
 5.6106    203
 5.6156    235
 5.6206    240
 5.6256    217
 5.6306    214
 5.6356    212
 5.6406    234
 5.6456    248
 5.6506    243
 5.6556    216
