RÖNTEC GmbH Berlin, Germany
Quantax 1.2

Date: 3/19/2019 10:43:42 AM
Real time: 794523
Life time: 600001
Pulse density: 94031


Detector type: XFLASH
Window type: 
Detector thickness: 0.45
Si dead layer:0

Calibration, lin.: 5.004
Calibration, abs.: -484.3
Mn FWHM: 135.26
Fano factor: 0.11
Channels: 4096

Energy Counts
-0.4843      0
-0.4793      0
-0.4743      0
-0.4693      0
-0.4643      0
-0.4593      0
-0.4543      0
-0.4493      0
-0.4443      0
-0.4393      0
-0.4343      0
-0.4293      0
-0.4243      0
-0.4192      0
-0.4142      0
-0.4092      0
-0.4042      0
-0.3992      0
-0.3942      0
-0.3892      0
-0.3842      0
-0.3792      0
-0.3742      0
-0.3692      0
-0.3642      0
-0.3592      0
-0.3542      0
-0.3492      0
-0.3442      0
-0.3392      0
-0.3342      0
-0.3292      0
-0.3242      0
-0.3192      0
-0.3142      0
-0.3092      0
-0.3042      0
-0.2992      0
-0.2941      0
-0.2891      0
-0.2841      0
-0.2791      0
-0.2741      0
-0.2691      0
-0.2641      0
-0.2591      0
-0.2541      0
-0.2491      0
-0.2441      0
-0.2391      0
-0.2341      0
-0.2291      0
-0.2241      0
-0.2191      0
-0.2141      0
-0.2091      0
-0.2041      0
-0.1991      0
-0.1941      0
-0.1891      0
-0.1841      0
-0.1791      0
-0.1741      0
 -0.169      0
 -0.164      0
 -0.159      0
 -0.154      1
 -0.149      2
 -0.144      1
 -0.139      3
 -0.134      7
 -0.129     14
 -0.124     36
 -0.119     78
 -0.114    161
 -0.109    321
 -0.104    572
 -0.099   1164
 -0.094   2095
 -0.089   3707
 -0.084   6374
 -0.079  10372
 -0.074  16426
 -0.069  25611
 -0.064  38186
 -0.059  55336
 -0.054  77960
 -0.049 106851
-0.0439 140436
-0.0389 180494
-0.0339 224440
-0.0289 269849
-0.0239 315323
-0.0189 355225
-0.0139 388188
-0.0089 410558
-0.0039 422521
 0.0011 419111
 0.0061 405923
 0.0111 378921
 0.0161 342410
 0.0211 299955
 0.0261 255947
 0.0311 211392
 0.0361 169419
 0.0411 132191
 0.0461  98848
 0.0511  73046
 0.0561  52102
 0.0611  35887
 0.0661  24163
 0.0711  16183
 0.0761  10188
 0.0812   6381
 0.0862   4127
 0.0912   2643
 0.0962   1743
 0.1012   1141
 0.1062    787
 0.1112    600
 0.1162    460
 0.1212    413
 0.1262    361
 0.1312    313
 0.1362    254
 0.1412    289
 0.1462    234
 0.1512    231
 0.1562    220
 0.1612    172
 0.1662    157
 0.1712    131
 0.1762    123
 0.1812    104
 0.1862    101
 0.1912     92
 0.1962     82
 0.2012     87
 0.2063     68
 0.2113     64
 0.2163     71
 0.2213     68
 0.2263     55
 0.2313     55
 0.2363     54
 0.2413     45
 0.2463     29
 0.2513     29
 0.2563     29
 0.2613     25
 0.2663     23
 0.2713     16
 0.2763     19
 0.2813     18
 0.2863     17
 0.2913     15
 0.2963     14
 0.3013     12
 0.3063     17
 0.3113     13
 0.3163     11
 0.3213     33
 0.3263     34
 0.3314     50
 0.3364    124
 0.3414    279
 0.3464    835
 0.3514   1848
 0.3564   2795
 0.3614   3563
 0.3664   3735
 0.3714   3904
 0.3764   3827
 0.3814   3783
 0.3864   3702
 0.3914   3731
 0.3964   3837
 0.4014   3772
 0.4064   3696
 0.4114   3608
 0.4164   3652
 0.4214   3570
 0.4264   3554
 0.4314   3581
 0.4364   3422
 0.4414   3413
 0.4464   3429
 0.4514   3378
 0.4565   3403
 0.4615   3380
 0.4665   3395
 0.4715   3194
 0.4765   3237
 0.4815   3282
 0.4865   3310
 0.4915   3206
 0.4965   3182
 0.5015   3232
 0.5065   3216
 0.5115   3205
 0.5165   3180
 0.5215   3303
 0.5265   3129
 0.5315   3147
 0.5365   3240
 0.5415   3283
 0.5465   3130
 0.5515   3148
 0.5565   3180
 0.5615   3068
 0.5665   3095
 0.5715   3067
 0.5765   2992
 0.5816   2999
 0.5866   3017
 0.5916   2959
 0.5966   3070
 0.6016   2966
 0.6066   2896
 0.6116   2932
 0.6166   2861
 0.6216   2887
 0.6266   2797
 0.6316   2913
 0.6366   2804
 0.6416   2820
 0.6466   2718
 0.6516   2811
 0.6566   2772
 0.6616   2657
 0.6666   2730
 0.6716   2730
 0.6766   2716
 0.6816   2724
 0.6866   2709
 0.6916   2688
 0.6966   2692
 0.7016   2713
 0.7067   2720
 0.7117   2636
 0.7167   2679
 0.7217   2667
 0.7267   2616
 0.7317   2682
 0.7367   2658
 0.7417   2649
 0.7467   2662
 0.7517   2572
 0.7567   2595
 0.7617   2566
 0.7667   2562
 0.7717   2512
 0.7767   2575
 0.7817   2524
 0.7867   2705
 0.7917   2542
 0.7967   2606
 0.8017   2536
 0.8067   2545
 0.8117   2552
 0.8167   2528
 0.8217   2509
 0.8267   2454
 0.8318   2479
 0.8368   2501
 0.8418   2471
 0.8468   2530
 0.8518   2468
 0.8568   2539
 0.8618   2464
 0.8668   2436
 0.8718   2430
 0.8768   2464
 0.8818   2447
 0.8868   2522
 0.8918   2300
 0.8968   2443
 0.9018   2411
 0.9068   2470
 0.9118   2446
 0.9168   2485
 0.9218   2330
 0.9268   2527
 0.9318   2452
 0.9368   2416
 0.9418   2365
 0.9468   2349
 0.9518   2411
 0.9569   2361
 0.9619   2311
 0.9669   2332
 0.9719   2341
 0.9769   2338
 0.9819   2376
 0.9869   2357
 0.9919   2299
 0.9969   2363
 1.0019   2293
 1.0069   2343
 1.0119   2286
 1.0169   2307
 1.0219   2310
 1.0269   2195
 1.0319   2276
 1.0369   2315
 1.0419   2290
 1.0469   2276
 1.0519   2328
 1.0569   2240
 1.0619   2207
 1.0669   2328
 1.0719   2266
 1.0769   2206
  1.082   2217
  1.087   2300
  1.092   2294
  1.097   2203
  1.102   2285
  1.107   2226
  1.112   2265
  1.117   2213
  1.122   2233
  1.127   2210
  1.132   2171
  1.137   2189
  1.142   2152
  1.147   2201
  1.152   2191
  1.157   2138
  1.162   2195
  1.167   2055
  1.172   2127
  1.177   2174
  1.182   2197
  1.187   2082
  1.192   2122
  1.197   2089
  1.202   2159
 1.2071   2171
 1.2121   2081
 1.2171   2133
 1.2221   2144
 1.2271   2154
 1.2321   2211
 1.2371   2277
 1.2421   2189
 1.2471   2183
 1.2521   2226
 1.2571   2152
 1.2621   2173
 1.2671   2187
 1.2721   2131
 1.2771   2127
 1.2821   2178
 1.2871   2077
 1.2921   2069
 1.2971   2048
 1.3021   2053
 1.3071   1993
 1.3121   1990
 1.3171   2026
 1.3221   1954
 1.3271   2034
 1.3322   2017
 1.3372   1996
 1.3422   1949
 1.3472   1927
 1.3522   1929
 1.3572   1961
 1.3622   1966
 1.3672   1999
 1.3722   1919
 1.3772   1926
 1.3822   1952
 1.3872   1938
 1.3922   2071
 1.3972   2067
 1.4022   2135
 1.4072   2147
 1.4122   2246
 1.4172   2368
 1.4222   2470
 1.4272   2540
 1.4322   2672
 1.4372   2954
 1.4422   3085
 1.4472   3153
 1.4522   3487
 1.4573   3652
 1.4623   3969
 1.4673   4071
 1.4723   4190
 1.4773   4310
 1.4823   4358
 1.4873   4441
 1.4923   4289
 1.4973   4213
 1.5023   4299
 1.5073   4103
 1.5123   4072
 1.5173   3835
 1.5223   3723
 1.5273   3553
 1.5323   3472
 1.5373   3229
 1.5423   3058
 1.5473   2922
 1.5523   2811
 1.5573   2726
 1.5623   2555
 1.5673   2560
 1.5723   2426
 1.5773   2471
 1.5824   2410
 1.5874   2294
 1.5924   2194
 1.5974   2276
 1.6024   2108
 1.6074   2202
 1.6124   2067
 1.6174   2151
 1.6224   2081
 1.6274   2159
 1.6324   2128
 1.6374   2221
 1.6424   2364
 1.6474   2403
 1.6524   2568
 1.6574   2776
 1.6624   3043
 1.6674   3412
 1.6724   3680
 1.6774   3946
 1.6824   4620
 1.6874   5120
 1.6924   5763
 1.6974   6477
 1.7024   7064
 1.7075   7754
 1.7125   8438
 1.7175   8992
 1.7225   9378
 1.7275   9682
 1.7325  10358
 1.7375  10344
 1.7425  10597
 1.7475  10496
 1.7525  10321
 1.7575  10081
 1.7625   9789
 1.7675   9176
 1.7725   8607
 1.7775   8099
 1.7825   7635
 1.7875   7047
 1.7925   6358
 1.7975   5952
 1.8025   5421
 1.8075   5037
 1.8125   4538
 1.8175   4390
 1.8225   4259
 1.8275   4147
 1.8326   3954
 1.8376   3950
 1.8426   3821
 1.8476   3873
 1.8526   3812
 1.8576   4106
 1.8626   4251
 1.8676   4454
 1.8726   4761
 1.8776   5171
 1.8826   5481
 1.8876   6028
 1.8926   6598
 1.8976   7060
 1.9026   7938
 1.9076   8408
 1.9126   9149
 1.9176   9741
 1.9226  10249
 1.9276  11059
 1.9326  11295
 1.9376  11710
 1.9426  12026
 1.9476  12131
 1.9526  12038
 1.9577  12040
 1.9627  11748
 1.9677  11311
 1.9727  10646
 1.9777  10204
 1.9827   9652
 1.9877   9071
 1.9927   8107
 1.9977   7561
 2.0027   6817
 2.0077   6155
 2.0127   5556
 2.0177   5190
 2.0227   4761
 2.0277   4243
 2.0327   4022
 2.0377   3763
 2.0427   3402
 2.0477   3353
 2.0527   3055
 2.0577   2958
 2.0627   2962
 2.0677   2751
 2.0727   2771
 2.0777   2576
 2.0828   2560
 2.0878   2605
 2.0928   2498
 2.0978   2416
 2.1028   2532
 2.1078   2503
 2.1128   2428
 2.1178   2458
 2.1228   2463
 2.1278   2388
 2.1328   2380
 2.1378   2399
 2.1428   2413
 2.1478   2324
 2.1528   2383
 2.1578   2438
 2.1628   2398
 2.1678   2423
 2.1728   2433
 2.1778   2514
 2.1828   2510
 2.1878   2576
 2.1928   2567
 2.1978   2677
 2.2028   2792
 2.2079   2987
 2.2129   2917
 2.2179   3110
 2.2229   3432
 2.2279   3559
 2.2329   3821
 2.2379   4105
 2.2429   4477
 2.2479   4821
 2.2529   5070
 2.2579   5292
 2.2629   5803
 2.2679   6186
 2.2729   6590
 2.2779   6799
 2.2829   7148
 2.2879   7409
 2.2929   7593
 2.2979   7776
 2.3029   7768
 2.3079   7913
 2.3129   7857
 2.3179   7607
 2.3229   7343
 2.3279   7201
  2.333   6919
  2.338   6471
  2.343   6107
  2.348   5672
  2.353   5529
  2.358   5035
  2.363   4684
  2.368   4296
  2.373   3903
  2.378   3669
  2.383   3452
  2.388   3268
  2.393   2899
  2.398   2859
  2.403   2639
  2.408   2573
  2.413   2503
  2.418   2444
  2.423   2331
  2.428   2439
  2.433   2305
  2.438   2307
  2.443   2391
  2.448   2347
  2.453   2333
 2.4581   2400
 2.4631   2458
 2.4681   2398
 2.4731   2337
 2.4781   2299
 2.4831   2334
 2.4881   2332
 2.4931   2310
 2.4981   2342
 2.5031   2321
 2.5081   2242
 2.5131   2213
 2.5181   2236
 2.5231   2236
 2.5281   2075
 2.5331   2142
 2.5381   2145
 2.5431   2185
 2.5481   2225
 2.5531   2110
 2.5581   2109
 2.5631   2141
 2.5681   2097
 2.5731   2155
 2.5781   2225
 2.5832   2218
 2.5882   2214
 2.5932   2162
 2.5982   2207
 2.6032   2216
 2.6082   2185
 2.6132   2228
 2.6182   2336
 2.6232   2283
 2.6282   2276
 2.6332   2210
 2.6382   2282
 2.6432   2223
 2.6482   2264
 2.6532   2227
 2.6582   2239
 2.6632   2116
 2.6682   2121
 2.6732   2253
 2.6782   2183
 2.6832   2252
 2.6882   2158
 2.6932   2218
 2.6982   2160
 2.7032   2267
 2.7083   2173
 2.7133   2249
 2.7183   2342
 2.7233   2240
 2.7283   2185
 2.7333   2239
 2.7383   2232
 2.7433   2219
 2.7483   2233
 2.7533   2176
 2.7583   2207
 2.7633   2178
 2.7683   2304
 2.7733   2298
 2.7783   2238
 2.7833   2255
 2.7883   2253
 2.7933   2283
 2.7983   2343
 2.8033   2346
 2.8083   2312
 2.8133   2233
 2.8183   2268
 2.8233   2217
 2.8283   2236
 2.8334   2295
 2.8384   2300
 2.8434   2309
 2.8484   2275
 2.8534   2352
 2.8584   2345
 2.8634   2292
 2.8684   2347
 2.8734   2405
 2.8784   2468
 2.8834   2452
 2.8884   2378
 2.8934   2484
 2.8984   2566
 2.9034   2571
 2.9084   2451
 2.9134   2691
 2.9184   2713
 2.9234   2674
 2.9284   2706
 2.9334   2803
 2.9384   2828
 2.9434   2868
 2.9484   2918
 2.9534   2813
 2.9585   2803
 2.9635   2856
 2.9685   2916
 2.9735   2904
 2.9785   2925
 2.9835   2882
 2.9885   2943
 2.9935   2898
 2.9985   2876
 3.0035   2789
 3.0085   2799
 3.0135   2736
 3.0185   2784
 3.0235   2644
 3.0285   2775
 3.0335   2818
 3.0385   2703
 3.0435   2797
 3.0485   2792
 3.0535   2635
 3.0585   2786
 3.0635   2719
 3.0685   2734
 3.0735   2841
 3.0785   2802
 3.0836   2743
 3.0886   2856
 3.0936   2811
 3.0986   2853
 3.1036   2928
 3.1086   3000
 3.1136   2883
 3.1186   2953
 3.1236   3013
 3.1286   3095
 3.1336   3023
 3.1386   3097
 3.1436   3229
 3.1486   3175
 3.1536   3207
 3.1586   3398
 3.1636   3316
 3.1686   3492
 3.1736   3477
 3.1786   3485
 3.1836   3712
 3.1886   3879
 3.1936   4040
 3.1986   4211
 3.2036   4432
 3.2087   4647
 3.2137   5025
 3.2187   5439
 3.2237   5889
 3.2287   6443
 3.2337   7059
 3.2387   7697
 3.2437   8573
 3.2487   9275
 3.2537  10325
 3.2587  11413
 3.2637  12338
 3.2687  13475
 3.2737  14561
 3.2787  15614
 3.2837  16513
 3.2887  17708
 3.2937  18751
 3.2987  19438
 3.3037  19959
 3.3087  20469
 3.3137  20726
 3.3187  21024
 3.3237  20915
 3.3287  20324
 3.3338  20184
 3.3388  19358
 3.3438  18391
 3.3488  17726
 3.3538  16669
 3.3588  15468
 3.3638  14572
 3.3688  13417
 3.3738  12193
 3.3788  11209
 3.3838  10382
 3.3888   9285
 3.3938   8517
 3.3988   7763
 3.4038   7060
 3.4088   6487
 3.4138   6165
 3.4188   5576
 3.4238   5236
 3.4288   5188
 3.4338   5024
 3.4388   4791
 3.4438   4913
 3.4488   4830
 3.4538   4761
 3.4589   4784
 3.4639   4885
 3.4689   5136
 3.4739   5315
 3.4789   5478
 3.4839   5704
 3.4889   6063
 3.4939   6538
 3.4989   6878
 3.5039   7373
 3.5089   7889
 3.5139   8568
 3.5189   9489
 3.5239  10425
 3.5289  11870
 3.5339  13298
 3.5389  15308
 3.5439  17547
 3.5489  20776
 3.5539  24155
 3.5589  28878
 3.5639  34714
 3.5689  41143
 3.5739  49977
 3.5789  60591
  3.584  72793
  3.589  87710
  3.594 104959
  3.599 126344
  3.604 149875
  3.609 178127
  3.614 208237
  3.619 242829
  3.624 280728
  3.629 322141
  3.634 365888
  3.639 412066
  3.644 460217
  3.649 508248
  3.654 555028
  3.659 602181
  3.664 644332
  3.669 685011
  3.674 718614
  3.679 748950
  3.684 770202
  3.689 785524
  3.694 792083
  3.699 790685
  3.704 780905
 3.7091 763002
 3.7141 738340
 3.7191 709013
 3.7241 669753
 3.7291 628821
 3.7341 584224
 3.7391 537297
 3.7441 487956
 3.7491 440900
 3.7541 391575
 3.7591 346530
 3.7641 302900
 3.7691 262209
 3.7741 224138
 3.7791 190988
 3.7841 161430
 3.7891 133889
 3.7941 110344
 3.7991  90829
 3.8041  74494
 3.8091  60749
 3.8141  48959
 3.8191  39184
 3.8241  31837
 3.8291  25631
 3.8342  20820
 3.8392  17222
 3.8442  14307
 3.8492  12337
 3.8542  10858
 3.8592  10036
 3.8642   9396
 3.8692   9273
 3.8742   9288
 3.8792   9597
 3.8842  10233
 3.8892  10807
 3.8942  12019
 3.8992  13332
 3.9042  14943
 3.9092  16696
 3.9142  19034
 3.9192  21607
 3.9242  24204
 3.9292  27775
 3.9342  31684
 3.9392  35414
 3.9442  39944
 3.9492  45231
 3.9542  50661
 3.9593  55563
 3.9643  61699
 3.9693  67396
 3.9743  72924
 3.9793  78840
 3.9843  83732
 3.9893  89496
 3.9943  92933
 3.9993  96830
 4.0043 100089
 4.0093 102546
 4.0143 103711
 4.0193 104101
 4.0243 102859
 4.0293 101877
 4.0343  98921
 4.0393  95347
 4.0443  92002
 4.0493  86983
 4.0543  81453
 4.0593  76291
 4.0643  70193
 4.0693  64027
 4.0743  58138
 4.0793  52306
 4.0844  46051
 4.0894  40879
 4.0944  35852
 4.0994  31336
 4.1044  26636
 4.1094  22931
 4.1144  19511
 4.1194  16668
 4.1244  13769
 4.1294  11622
 4.1344   9563
 4.1394   8118
 4.1444   6597
 4.1494   5424
 4.1544   4568
 4.1594   3794
 4.1644   3234
 4.1694   2765
 4.1744   2324
 4.1794   2059
 4.1844   1828
 4.1894   1657
 4.1944   1550
 4.1994   1404
 4.2044   1302
 4.2095   1238
 4.2145   1225
 4.2195   1177
 4.2245   1138
 4.2295   1094
 4.2345   1146
 4.2395   1094
 4.2445   1089
 4.2495   1109
 4.2545   1056
 4.2595   1029
 4.2645   1116
 4.2695   1107
 4.2745   1076
 4.2795   1050
 4.2845   1011
 4.2895   1008
 4.2945   1037
 4.2995   1014
 4.3045   1066
 4.3095   1041
 4.3145   1086
 4.3195    999
 4.3245   1070
 4.3295   1071
 4.3346   1022
 4.3396   1159
 4.3446   1128
 4.3496   1218
 4.3546   1214
 4.3596   1305
 4.3646   1364
 4.3696   1564
 4.3746   1551
 4.3796   1726
 4.3846   2019
 4.3896   2089
 4.3946   2326
 4.3996   2626
 4.4046   3018
 4.4096   3331
 4.4146   3820
 4.4196   4210
 4.4246   4772
 4.4296   5496
 4.4346   6151
 4.4396   6648
 4.4446   7392
 4.4496   8376
 4.4546   8987
 4.4597   9952
 4.4647  10481
 4.4697  11565
 4.4747  12127
 4.4797  12768
 4.4847  13617
 4.4897  13836
 4.4947  14577
 4.4997  14739
 4.5047  15147
 4.5097  15302
 4.5147  15146
 4.5197  14747
 4.5247  14894
 4.5297  14454
 4.5347  13919
 4.5397  13238
 4.5447  12798
 4.5497  11944
 4.5547  11328
 4.5597  10529
 4.5647   9621
 4.5697   8968
 4.5747   8204
 4.5797   7593
 4.5848   6738
 4.5898   6096
 4.5948   5532
 4.5998   5171
 4.6048   4693
 4.6098   4310
 4.6148   4015
 4.6198   3704
 4.6248   3419
 4.6298   3160
 4.6348   2986
 4.6398   3011
 4.6448   2671
 4.6498   2563
 4.6548   2510
 4.6598   2466
 4.6648   2361
 4.6698   2276
 4.6748   2265
 4.6798   2105
 4.6848   2099
 4.6898   1994
 4.6948   1899
 4.6998   1930
 4.7048   1773
 4.7099   1692
 4.7149   1627
 4.7199   1530
 4.7249   1525
 4.7299   1479
 4.7349   1355
 4.7399   1407
 4.7449   1340
 4.7499   1282
 4.7549   1272
 4.7599   1286
 4.7649   1322
 4.7699   1334
 4.7749   1421
 4.7799   1406
 4.7849   1425
 4.7899   1515
 4.7949   1525
 4.7999   1561
 4.8049   1640
 4.8099   1723
 4.8149   1757
 4.8199   1741
 4.8249   1894
 4.8299   1916
  4.835   1922
   4.84   2010
  4.845   2178
   4.85   2229
  4.855   2249
   4.86   2326
  4.865   2546
   4.87   2584
  4.875   2670
   4.88   2796
  4.885   2866
   4.89   2837
  4.895   3039
    4.9   3057
  4.905   3236
   4.91   3199
  4.915   3319
   4.92   3280
  4.925   3331
   4.93   3310
  4.935   3335
   4.94   3269
  4.945   3316
   4.95   3196
  4.955   3125
 4.9601   3131
 4.9651   3043
 4.9701   2915
 4.9751   2737
 4.9801   2652
 4.9851   2521
 4.9901   2376
 4.9951   2240
 5.0001   2082
 5.0051   1913
 5.0101   1905
 5.0151   1772
 5.0201   1707
 5.0251   1597
 5.0301   1344
 5.0351   1392
 5.0401   1261
 5.0451   1143
 5.0501   1186
 5.0551   1080
 5.0601   1036
 5.0651   1045
 5.0701   1012
 5.0751    886
 5.0801    943
 5.0852    889
 5.0902    938
 5.0952    910
 5.1002    919
 5.1052    958
 5.1102    907
 5.1152    889
 5.1202    914
 5.1252    947
 5.1302    934
 5.1352    926
 5.1402    917
 5.1452    963
 5.1502    961
 5.1552    942
 5.1602    943
 5.1652    977
 5.1702    983
 5.1752   1000
 5.1802   1027
 5.1852    973
 5.1902    970
 5.1952    994
 5.2002   1017
 5.2052   1053
 5.2103    962
 5.2153   1063
 5.2203   1021
 5.2253    992
 5.2303    993
 5.2353    962
 5.2403   1059
 5.2453   1037
 5.2503   1062
 5.2553   1051
 5.2603   1043
 5.2653   1027
 5.2703   1095
 5.2753   1043
 5.2803   1041
 5.2853   1063
 5.2903   1039
 5.2953   1099
 5.3003   1146
 5.3053   1065
 5.3103   1011
 5.3153   1143
 5.3203   1211
 5.3253   1124
 5.3303   1237
 5.3354   1280
 5.3404   1191
 5.3454   1268
 5.3504   1315
 5.3554   1257
 5.3604   1329
 5.3654   1297
 5.3704   1431
 5.3754   1335
 5.3804   1384
 5.3854   1452
 5.3904   1519
 5.3954   1486
 5.4004   1480
 5.4054   1500
 5.4104   1469
 5.4154   1544
 5.4204   1466
 5.4254   1485
 5.4304   1488
 5.4354   1498
 5.4404   1478
 5.4454   1444
 5.4504   1406
 5.4554   1377
 5.4605   1393
 5.4655   1287
 5.4705   1283
 5.4755   1252
 5.4805   1258
 5.4855   1197
 5.4905   1173
 5.4955   1140
 5.5005   1098
 5.5055   1174
 5.5105   1089
 5.5155   1031
 5.5205   1054
 5.5255   1081
 5.5305   1008
 5.5355   1062
 5.5405   1008
 5.5455   1019
 5.5505   1058
 5.5555    989
 5.5605   1061
 5.5655    967
 5.5705    964
 5.5755   1009
 5.5805    945
 5.5856    935
 5.5906    999
 5.5956   1002
 5.6006    974
 5.6056    967
 5.6106    958
 5.6156    929
 5.6206    953
 5.6256    945
 5.6306    941
 5.6356    917
 5.6406    958
 5.6456   1014
 5.6506    970
 5.6556    933
